File: Finalized Code/CNN Models/RAMAN Data MITACs/TULSI/PMMA on Si substrate/Si-hydrophilic-blank with PMMA-4.txt
#Wave		#Intensity
1800.53	6878.98
1795.68	6968.45
1790.83	6787.13
1785.97	6834.14
1781.11	6561.17
1776.24	6546.94
1771.37	6568.48
1766.49	6393.52
1761.61	6320.85
1756.72	6103.18
1751.83	6132.68
1746.93	6065.54
1742.03	5737.06
1737.12	5893.61
1732.21	5745.82
1727.29	5659.06
1722.37	5633.15
1717.44	5463.31
1712.51	5493.15
1707.57	5364.11
1702.63	5343.6
1697.68	5036.34
1692.73	5146.88
1687.77	5056.33
1682.81	4983.52
1677.84	4860.74
1672.87	4760.72
1667.89	4663.4
1662.91	4718.64
1657.92	4591.6
1652.93	4492.24
1647.94	4385.59
1642.93	4490.62
1637.93	4289.74
1632.91	4280.44
1627.9	4162.01
1622.87	4147.88
1617.85	4076.85
1612.81	3981.23
1607.78	4051.3
1602.73	3909
1597.68	3885.31
1592.63	3738.52
1587.57	3722.43
1582.51	3664.58
1577.44	3552.82
1572.37	3448.64
1567.29	3565.2
1562.2	3500.38
1557.12	3381.89
1552.02	3283.18
1546.92	3248.11
1541.82	3261.86
1536.71	3146.51
1531.59	3196.83
1526.47	3178.99
1521.34	3192.74
1516.21	3056.08
1511.08	3043.27
1505.94	2902.19
1500.79	2889.55
1495.64	2886.6
1490.48	2842.62
1485.32	2866.23
1480.15	2779.01
1474.98	2723.24
1469.8	2787.74
1464.61	2768.08
1459.42	2611.75
1454.23	2635.43
1449.03	2644.69
1443.83	2560.69
1438.62	2615.38
1433.4	2488.62
1428.18	2457.46
1422.95	2495.41
1417.72	2331.1
1412.48	2361.97
1407.24	2302.56
1401.99	2127.09
1396.74	2174.64
1391.48	2222.1
1386.22	2198.53
1380.95	2170.28
1375.67	2116.14
1370.39	2151.67
1365.1	2137.67
1359.81	2050.8
1354.52	2083.92
1349.21	1992.58
1343.91	2009.28
1338.59	1932.25
1333.27	1841.34
1327.95	1909.55
1322.62	1940.26
1317.28	1767.99
1311.94	1819.74
1306.59	1827.17
1301.24	1762.49
1295.88	1783.89
1290.52	1756.51
1285.15	1685.15
1279.78	1676.45
1274.4	1658.52
1269.01	1608.27
1263.62	1668.92
1258.22	1692.55
1252.82	1596.34
1247.41	1553.26
1242	1528.65
1236.58	1538.54
1231.16	1507.11
1225.72	1411.59
1220.29	1494.81
1214.85	1479.53
1209.4	1464.28
1203.94	1453.62
1198.49	1468.05
1193.02	1298.01
1187.55	1469.53
1182.07	1295.29
1176.59	1346.14
1171.1	1290.31
1165.61	1313.88
1160.11	1307.97
1154.61	1293.04
1149.09	1352.65
1143.58	1308.37
1138.05	1282.21
1132.53	1379.91
1126.99	1322.24
1121.45	1359.03
1115.91	1332.92
1110.35	1266.51
1104.8	1189.04
1099.23	1239.24
1093.66	1233.46
1088.09	1196.45
1082.51	1195.19
1076.92	1158.28
1071.33	1179.31
1065.73	1173.62
1060.12	1196.81
1054.51	1215.5
1048.9	1327.22
1043.28	1254.99
1037.65	1470.34
1032.01	1804.51
1026.37	2001.17
1020.73	2151.12
1015.07	2375.62
1009.42	2670.01
1003.75	3135.14
998.08	3555.39
992.404	4838.52
986.722	6629.2
981.033	7731.31
975.338	8182.02
969.638	8426.55
963.931	8609.48
958.218	9181.95
952.499	9751
946.774	10455.8
941.043	11910.4
935.306	10908.5
929.562	7521
923.813	3528.13
918.058	2663.81
912.296	2550.81
906.528	2407.84
900.754	2312.59
894.974	2228.31
889.188	2195.81
883.395	2163.39
877.596	2100.98
871.791	2130.88
865.979	2040.8
860.162	1972.3
854.338	1959.5
848.508	1912.57
842.672	1985.14
836.829	1959.58
830.979	1923.43
825.125	1968.12
819.264	1999.97
813.396	1906.62
807.521	1896.1
801.641	1758.61
795.754	1716.55
789.86	1607.01
783.961	1560.97
778.056	1580.36
772.143	1469.2
766.225	1476.03
760.299	1409.32
754.368	1414.09
748.43	1349.69
742.485	1348.23
736.535	1269.39
730.577	1339.04
724.614	1287.51
718.644	1261.1
712.667	1259.73
706.684	1295.81
700.694	1508.4
694.698	1566.95
688.695	1615.01
682.687	1778.92
676.671	1921.8
670.648	2072.62
664.619	2057.98
658.584	1894.91
652.542	1950.52
646.493	1849.64
640.438	1849.67
634.376	1870.24
628.308	1983.04
622.233	2255.37
616.151	2203.8
610.062	1890.7
603.968	1741.63
597.866	1590.84
591.758	1407.78
585.643	1461.18
579.521	1455.52
573.393	1346.3
567.258	1616.63
561.115	1858
554.967	2193.96
548.812	2854.67
542.649	3861.29
536.48	5971.17
530.305	12553.9
524.122	64026.8
517.933	294163
511.736	21307.4
505.534	7609.57
499.324	4132.26
493.107	3086.77
486.884	2569.47
480.653	2099.25
474.416	1783.69
468.172	1632.25
461.921	1538.87
455.663	1515.3
449.397	1928.77
443.126	2259.98
436.848	2665.77
430.562	2985.53
424.269	2812.15
417.969	2645.07
411.662	2580.97
405.349	2656.95
400.293	2644.74