File: Finalized Code/CNN Models/RAMAN Data MITACs/TULSI/PMMA on Si substrate/Si-hydrophobic-with PMMA-1.txt
#Wave		#Intensity
1800.53	133231
1795.68	133371
1790.83	133353
1785.97	133691
1781.11	132823
1776.24	134323
1771.37	132971
1766.49	134310
1761.61	134150
1756.72	135240
1751.83	136109
1746.93	136092
1742.03	136913
1737.12	136986
1732.21	137814
1727.29	138090
1722.37	138285
1717.44	138775
1712.51	138880
1707.57	139268
1702.63	140054
1697.68	140799
1692.73	141238
1687.77	142765
1682.81	143245
1677.84	144331
1672.87	147082
1667.89	149006
1662.91	150050
1657.92	152519
1652.93	154217
1647.94	158980
1642.93	161777
1637.93	166728
1632.91	171188
1627.9	178299
1622.87	186903
1617.85	197085
1612.81	207452
1607.78	221935
1602.73	236363
1597.68	255304
1592.63	273841
1587.57	285899
1582.51	297165
1577.44	310524
1572.37	322269
1567.29	335974
1562.2	349035
1557.12	360970
1552.02	368998
1546.92	379070
1541.82	387031
1536.71	397106
1531.59	404080
1526.47	406952
1521.34	410251
1516.21	418465
1511.08	425791
1505.94	431206
1500.79	433368
1495.64	434033
1490.48	433252
1485.32	432437
1480.15	428837
1474.98	421085
1469.8	411644
1464.61	402771
1459.42	387376
1454.23	374720
1449.03	365939
1443.83	357442
1438.62	347275
1433.4	337515
1428.18	324926
1422.95	312865
1417.72	305730
1412.48	300773
1407.24	297270
1401.99	291688
1396.74	290516
1391.48	292469
1386.22	291043
1380.95	287314
1375.67	283705
1370.39	282460
1365.1	281349
1359.81	280920
1354.52	278193
1349.21	277232
1343.91	275942
1338.59	277825
1333.27	278214
1327.95	280805
1322.62	282501
1317.28	288807
1311.94	297152
1306.59	303777
1301.24	311410
1295.88	319576
1290.52	324950
1285.15	328910
1279.78	334998
1274.4	340879
1269.01	336317
1263.62	329278
1258.22	324503
1252.82	321921
1247.41	317352
1242	315681
1236.58	312270
1231.16	309377
1225.72	310045
1220.29	315432
1214.85	319944
1209.4	328256
1203.94	336249
1198.49	346646
1193.02	361524
1187.55	381920
1182.07	404292
1176.59	426784
1171.1	297891
1165.61	306346
1160.11	310553
1154.61	310390
1149.09	306751
1143.58	302120
1138.05	288893
1132.53	414442
1126.99	396374
1121.45	377859
1115.91	357014
1110.35	334742
1104.8	317710
1099.23	301551
1093.66	288733
1088.09	276507
1082.51	268348
1076.92	262432
1071.33	256538
1065.73	251106
1060.12	243882
1054.51	234768
1048.9	228818
1043.28	223722
1037.65	220905
1032.01	219781
1026.37	218893
1020.73	215571
1015.07	213924
1009.42	213884
1003.75	216773
998.08	229445
992.404	222800
986.722	229963
981.033	235785
975.338	239877
969.638	242957
963.931	244899
958.218	250182
952.499	254333
946.774	257143
941.043	256964
935.306	252410
929.562	243723
923.813	238168
918.058	228932
912.296	222670
906.528	218622
900.754	217759
894.974	218751
889.188	219383
883.395	219366
877.596	218306
871.791	216210
865.979	212941
860.162	211207
854.338	210952
848.508	208954
842.672	207918
836.829	204772
830.979	202194
825.125	198625
819.264	192165
813.396	187267
807.521	182241
801.641	178752
795.754	175824
789.86	172315
783.961	169195
778.056	167158
772.143	167230
766.225	166671
760.299	166065
754.368	166391
748.43	165083
742.485	163801
736.535	163998
730.577	164105
724.614	164551
718.644	162505
712.667	163134
706.684	165052
700.694	167227
694.698	169152
688.695	172555
682.687	172659
676.671	172740
670.648	173739
664.619	173793
658.584	170775
652.542	167228
646.493	165659
640.438	166105
634.376	165320
628.308	164826
622.233	165582
616.151	166914
610.062	164391
603.968	159542
597.866	156593
591.758	155336
585.643	155585
579.521	155982
573.393	155970
567.258	154568
561.115	153087
554.967	155166
548.812	157504
542.649	158048
536.48	160217
530.305	167591
524.122	218819
517.933	430635
511.736	181534
505.534	168827
499.324	167443
493.107	167675
486.884	169061
480.653	167998
474.416	169014
468.172	169094
461.921	167803
455.663	166784
449.397	168282
443.126	169354
436.848	171446
430.562	172567
424.269	172463
417.969	174419
411.662	177894
405.349	181634
400.293	181995