File: Finalized Code/CNN Models/RAMAN Data MITACs/TULSI/PMMA on Si substrate/Si-hydrophobic-blank with PMMA-1.txt
#Wave		#Intensity
1800.53	2489.07
1795.68	2369.02
1790.83	2382.03
1785.97	2471.87
1781.11	2351.68
1776.24	2479.71
1771.37	2321.44
1766.49	2405.86
1761.61	2423.84
1756.72	2482.52
1751.83	2429.16
1746.93	2464.84
1742.03	2403.98
1737.12	2487.79
1732.21	2447.29
1727.29	2515.7
1722.37	2583.97
1717.44	2465.18
1712.51	2561.11
1707.57	2540.89
1702.63	2659.21
1697.68	2804.96
1692.73	2983.08
1687.77	3703.12
1682.81	4542.1
1677.84	4870.76
1672.87	5031.04
1667.89	5108.49
1662.91	4448.86
1657.92	3538.53
1652.93	3123.62
1647.94	2851.51
1642.93	2647.11
1637.93	2733.9
1632.91	2639.27
1627.9	2693.65
1622.87	2757.82
1617.85	2764.93
1612.81	2809.11
1607.78	3317.62
1602.73	5480.98
1597.68	9617.12
1592.63	5841.75
1587.57	3914.33
1582.51	3352.44
1577.44	3447.24
1572.37	3046.38
1567.29	2898.72
1562.2	2766.04
1557.12	2697.2
1552.02	2533.22
1546.92	2511.12
1541.82	2479.31
1536.71	2464.61
1531.59	2510.75
1526.47	2554.37
1521.34	2549.34
1516.21	2420.61
1511.08	2393.91
1505.94	2510.07
1500.79	2478.49
1495.64	2632.96
1490.48	2917.43
1485.32	2601.06
1480.15	2682.69
1474.98	2728.05
1469.8	2778.13
1464.61	2912.13
1459.42	3141.78
1454.23	3181.68
1449.03	3109.01
1443.83	3266.01
1438.62	3119.35
1433.4	2860.84
1428.18	2667.21
1422.95	2543.03
1417.72	2599.89
1412.48	2514.04
1407.24	2530.45
1401.99	2530.21
1396.74	2634.21
1391.48	2600.73
1386.22	2692.61
1380.95	2678.02
1375.67	2710.65
1370.39	2719.63
1365.1	2533.19
1359.81	2676.39
1354.52	2758.2
1349.21	2642.7
1343.91	2656.37
1338.59	2742.63
1333.27	2723.41
1327.95	2732.28
1322.62	2724.78
1317.28	2773.27
1311.94	2779.71
1306.59	2679.07
1301.24	2648.39
1295.88	2694.42
1290.52	2726.42
1285.15	2844.12
1279.78	3137.56
1274.4	3298.53
1269.01	3357.49
1263.62	3515.58
1258.22	3666.41
1252.82	3358.53
1247.41	3138.73
1242	3034.31
1236.58	2893.37
1231.16	2881.17
1225.72	2907.96
1220.29	2740.1
1214.85	2792.12
1209.4	2882.86
1203.94	2920.93
1198.49	3143.55
1193.02	3463.63
1187.55	3933.16
1182.07	3919.96
1176.59	4383.48
1171.1	4843.76
1165.61	4353.91
1160.11	4894.71
1154.61	3883.63
1149.09	3312.75
1143.58	3257.39
1138.05	3021.86
1132.53	3095.22
1126.99	2988.53
1121.45	2985.38
1115.91	2816.19
1110.35	2750.46
1104.8	2682.62
1099.23	2802.83
1093.66	2634.52
1088.09	2645.13
1082.51	2836.34
1076.92	2699.69
1071.33	2565.56
1065.73	2727.34
1060.12	2671.17
1054.51	2657.25
1048.9	2716.48
1043.28	2813.21
1037.65	3210.43
1032.01	6093.8
1026.37	3713.3
1020.73	2962.2
1015.07	3051.53
1009.42	3615.73
1003.75	11011.4
998.08	8671.19
992.404	4823.17
986.722	4785.2
981.033	4088.8
975.338	3649.56
969.638	3669.7
963.931	4045.24
958.218	4328.48
952.499	3969.17
946.774	3623.66
941.043	3582.88
935.306	3652.81
929.562	3289.22
923.813	3121.2
918.058	2856.25
912.296	2835.92
906.528	2778.95
900.754	2726.4
894.974	2779.46
889.188	2800.15
883.395	2820.78
877.596	2691.14
871.791	2885.48
865.979	2775.32
860.162	3058.99
854.338	3194.6
848.508	3110.06
842.672	3074.73
836.829	3452.69
830.979	3359.62
825.125	3032.95
819.264	2944.76
813.396	2867.36
807.521	2951.13
801.641	2971.23
795.754	3268.22
789.86	2924.71
783.961	2896.24
778.056	2905.76
772.143	2852.1
766.225	2785.95
760.299	2829.14
754.368	2836.57
748.43	2833.51
742.485	2843
736.535	2781.37
730.577	2924.59
724.614	2963.15
718.644	3112.11
712.667	3112.9
706.684	3207.28
700.694	4886.72
694.698	7347.03
688.695	4847.09
682.687	3533
676.671	2987.16
670.648	2981.85
664.619	2854.75
658.584	2787.73
652.542	2877.38
646.493	2843.38
640.438	2838.22
634.376	2982.94
628.308	3090.42
622.233	3775.34
616.151	4945.75
610.062	3260.18
603.968	3040.19
597.866	3406.02
591.758	3766.97
585.643	3370.08
579.521	2923.23
573.393	2942.36
567.258	2967.54
561.115	2826.5
554.967	2977.22
548.812	2923.41
542.649	3005.02
536.48	3161.09
530.305	3383.3
524.122	6145.24
517.933	15570.4
511.736	3739.69
505.534	3079.54
499.324	3074.14
493.107	2890.59
486.884	2959.39
480.653	2904.2
474.416	2994.77
468.172	3019.36
461.921	2912.51
455.663	3016.67
449.397	2965.66
443.126	2926.67
436.848	3070.1
430.562	3159.75
424.269	3223.49
417.969	3162.63
411.662	3165.04
405.349	3295.56
400.293	3282.79