File: Finalized Code/RAMAN Data MITACs/Bulk Carbon Ring Identification/Copy of PureToluene.txt
#Wave		#Intensity
2964.05	75046.5
2955.52	83391.7
2946.97	92404.9
2938.42	105548
2929.85	155154
2921.28	256920
2912.69	204797
2904.1	105461
2895.49	70182.6
2886.88	65850.9
2878.25	76296.7
2869.62	80751.2
2860.98	77125.8
2852.32	55254.2
2843.66	36413.2
2834.99	28672.8
2826.31	26608.4
2817.61	24333.4
2808.91	23848.2
2800.2	22603
2791.48	21554.6
2782.74	22433.2
2774	22654.8
2765.25	22038.7
2756.49	21558.1
2747.72	23304.1
2738.93	34738
2730.14	31429.3
2721.34	21053.1
2712.53	19753.6
2703.71	20243.5
2694.88	18977.2
2686.03	18514.2
2677.18	18543.8
2668.32	19179.9
2659.45	20725.7
2650.56	19061.2
2641.67	19117.8
2632.77	18845.5
2623.86	19563.5
2614.93	20848.9
2606	24916.4
2597.06	21373.6
2588.1	24624.9
2579.14	23625
2570.17	21839.6
2561.18	21708.3
2552.19	23369.2
2543.18	21807.9
2534.17	20490.9
2525.14	19690.9
2516.11	19336.7
2507.06	19287
2498	19255
2488.94	19637
2479.86	19507
2470.77	19524
2461.67	19742.3
2452.56	19358.9
2443.44	19452.4
2434.31	21163.8
2425.17	20649.3
2416.02	20715.8
2406.86	19957.3
2397.69	19250.4
2388.51	19477.6
2379.31	18808.5
2370.11	18538
2360.9	18453.9
2351.67	18309.5
2342.44	17822.6
2333.19	17589.8
2323.93	17368.3
2314.66	17654.3
2305.38	17152
2296.09	16613.4
2286.79	16823.1
2277.48	16643.1
2268.16	16468.9
2258.83	16724.9
2249.48	16334.6
2240.13	16557.1
2230.76	16042.4
2221.39	15913.2
2212	15905.2
2202.6	16007.3
2193.19	15500.8
2183.77	15537.5
2174.34	15495
2164.89	15444.1
2155.44	15278.5
2145.97	15329.9
2136.5	15214.1
2127.01	15235
2117.51	15331.2
2108	14994.9
2098.48	14859
2088.95	14783.9
2079.4	14771.6
2069.85	14589.5
2060.28	14586.7
2050.7	14469.6
2041.11	14443.1
2031.51	14514
2021.9	14229.5
2012.28	14208.4
2002.64	14253.4
1992.99	14633.7
1983.34	14145.1
1973.67	13896.6
1963.98	14268.6
1954.29	14224.8
1944.59	13665
1934.87	13862.8
1925.14	14179.7
1915.4	13523.8
1905.65	13447.3
1895.88	13461.6
1886.11	13275.3
1876.32	13191.1
1866.52	13132.5
1856.71	13108.5
1846.89	13161.5
1837.06	12931.9
1827.21	12916.2
1817.35	12954
1807.48	13043.2
1797.6	13101.8
1787.7	13742.9
1777.8	12966.4
1767.88	12768.9
1757.95	12825.4
1748	12594.5
1738.05	12902
1728.08	13024.1
1718.1	12990.1
1708.11	12836.7
1698.1	13236.8
1688.09	13729.4
1678.06	14190.9
1668.02	13793.7
1657.96	14195.5
1647.9	15387.5
1637.82	17677.9
1627.73	25690.3
1617.62	34456.3
1607.51	89896.4
1597.38	56460.7
1587.24	65057.4
1577.08	35730.5
1566.91	21603.1
1556.73	17933.2
1546.54	16695.8
1536.34	16300.3
1526.12	16390
1515.89	16596.3
1505.65	17395.7
1495.39	21641
1485.12	18870.3
1474.84	19675.4
1464.54	21409.7
1454.24	23883.2
1443.92	26675.5
1433.58	26454
1423.23	22267
1412.88	18960.2
1402.5	18128.2
1392.12	21386.2
1381.72	48458.2
1371.3	27688.1
1360.88	17672.7
1350.44	15701
1339.99	15711.5
1329.52	18698.4
1319.04	15768.5
1308.55	16160.2
1298.04	13995.2
1287.53	13432.2
1276.99	13504.8
1266.45	13205.3
1255.89	13503.3
1245.31	14370.2
1234.73	14275.6
1224.13	16022.9
1213.51	56297.5
1202.88	30713.9
1192.24	21615.6
1181.59	37987.3
1170.92	26392.8
1160.24	35907.3
1149.54	29718.2
1138.83	17118.2
1128.11	15018.5
1117.37	14300.1
1106.62	14516.8
1095.85	14056.9
1085.07	15775.9
1074.28	14956.7
1063.47	14577.1
1052.65	15390.8
1041.82	17794.5
1030.97	99024.4
1020.1	21416.5
1009.23	42671.2
998.334	79680.6
987.428	22676.7
976.508	16818.3
965.572	15273.2
954.625	13618.5
943.66	13027.7
932.684	13003.5
921.691	12622.4
910.686	12757.8
899.664	15069
888.629	14203.1
877.58	12741.1
866.516	12648
855.438	13294.5
844.344	18273.9
833.236	15114
822.113	13688.9
810.977	18520.2
799.824	17112.2
788.658	100964
777.477	25946.7
766.281	13348.4
755.07	12540.5
743.846	12771.4
732.605	17933.2
721.352	13857.6
710.08	12138
698.797	12013.5
687.496	11805.6
676.182	11527.8
664.854	11400.1
653.508	11968.6
642.148	13395.3
630.775	22226.9
619.385	43272.8
607.98	16170.5
596.561	12440.7
585.127	11711.2
573.676	11509.7
562.211	11508.4
550.73	11801
539.234	13284.4
527.725	25554.6
516.199	37230.9
504.658	13563.8
493.102	11539.6
481.529	11282.6
469.941	13703.3
458.34	12748.2
446.721	10835.1
435.088	10820.8
423.439	10830.4