File: Finalized Code/RAMAN Data MITACs/Bulk Carbon Ring Identification/Copy of PSnoBL.txt
#Wave		#Intensity
1724.09	2.972211
1720.17	40.2264
1716.25	64.0737
1712.33	-139.294
1708.4	48.0409
1704.47	-41.6621
1700.54	70.9092
1696.6	-18.5993
1692.66	237.469
1688.71	259.39
1684.77	357.759
1680.82	146.835
1676.86	171.666
1672.91	163.078
1668.95	-1.263695
1664.98	-93.8427
1661.01	29.1972
1657.04	351.057
1653.07	1441.14
1649.09	2187.3
1645.11	1971.23
1641.13	1423.96
1637.14	889.617
1633.15	741.153
1629.16	791.658
1625.16	1412.82
1621.16	2556.83
1617.16	4141.08
1613.15	7795.15
1609.14	19222.1
1605.12	46650.8
1601.11	53123.9
1597.09	23570.9
1593.06	11238.9
1589.04	9038.75
1585	23273.3
1580.97	17568.1
1576.93	5684.23
1572.89	2600.33
1568.85	1447.31
1564.8	891.421
1560.75	333.258
1556.69	307.437
1552.64	139.54
1548.57	-23.8539
1544.51	262.128
1540.44	297.943
1536.37	359.501
1532.29	123.265
1528.21	33.2507
1524.13	490.47
1520.05	373.934
1515.96	687.227
1511.87	511.064
1507.77	825.286
1503.67	981.598
1499.57	1265.79
1495.46	2515.55
1491.35	1747.82
1487.24	1278.45
1483.12	1272.77
1479	1417.18
1474.87	2123.46
1470.75	2137.64
1466.62	2600.95
1462.48	4010.26
1458.34	7394.92
1454.2	13187.1
1450.05	14234.6
1445.91	12591.8
1441.75	9505.17
1437.6	6408.66
1433.44	3568.08
1429.27	1714.74
1425.11	1223.86
1420.94	771.931
1416.76	659.827
1412.58	565.313
1408.4	655.578
1404.22	500.03
1400.03	149.852
1395.84	57.5127
1391.64	-182.71
1387.44	366.969
1383.24	1657.91
1379.03	2415.72
1374.82	2756.12
1370.61	2804.13
1366.39	2717.3
1362.17	2213.86
1357.95	1984.17
1353.72	1496.34
1349.48	1780.26
1345.25	2108.68
1341.01	3034.33
1336.77	4657.71
1332.52	5833.96
1328.27	6272.51
1324.01	5646.34
1319.75	4588.25
1315.49	3055.9
1311.23	2353.97
1306.96	1954.08
1302.68	1781.77
1298.41	1273.89
1294.13	906.589
1289.84	575.608
1285.55	327.986
1281.26	62.0175
1276.96	37.8599
1272.66	435.991
1268.36	772.158
1264.05	824.958
1259.74	988.024
1255.43	1111.29
1251.11	856.077
1246.79	1225.43
1242.46	1437.49
1238.13	1428.26
1233.79	1719.57
1229.46	2767.16
1225.11	3926.56
1220.77	4803.07
1216.42	6285.11
1212.06	11204.1
1207.71	19019.9
1203.34	27224.5
1198.98	32198.9
1194.61	32348.9
1190.24	27119.8
1185.86	27670.8
1181.48	32640.2
1177.09	16419.3
1172.7	7399.96
1168.31	5799.8
1163.91	6903.45
1159.51	15546.3
1155.11	25215.1
1150.7	10371.7
1146.29	3155.81
1141.87	1438
1137.45	184.377
1133.02	69.8484
1128.59	116.583
1124.16	581.34
1119.72	1710.97
1115.28	2872.49
1110.84	3468.88
1106.39	5199.14
1101.93	7017.23
1097.48	7758.14
1093.02	7664.96
1088.55	7717.77
1084.08	8151.57
1079.61	8561.64
1075.13	8538.24
1070.65	9345.84
1066.16	8926.44
1061.67	8291.79
1057.18	7936.07
1052.68	8125.99
1048.18	9573.94
1043.67	13559.9
1039.16	25327.5
1034.64	61475.6
1030.12	69099
1025.6	31106.1
1021.07	14246.1
1016.54	10452.8
1012	16132.1
1007.46	56452.8
1002.92	270483
998.371	124726
993.818	34066
989.261	25036.8
984.699	12226.8
980.134	7918.43
975.563	5225.99
970.989	3854.36
966.411	3866.11
961.828	3079.33
957.241	1779.6
952.649	1307.45
948.054	1137.5
943.454	977.91
938.85	680.61
934.241	301.261
929.628	0.993713
925.011	110.758
920.39	279.434
915.764	979.341
911.133	2225.17
906.498	3088.47
901.859	2043.26
897.216	924.915
892.568	135.202
887.916	283.993
883.259	334.593
878.598	467.468
873.933	864.43
869.263	783.318
864.589	769.137
859.91	349.643
855.227	582.896
850.539	1070.04
845.847	2506.43
841.15	3038.6
836.449	1654.51
831.744	242.557
827.034	-75.0317
822.319	442.647
817.601	1887.6
812.877	4031
808.149	5709.78
803.416	9297.64
798.68	15118.1
793.938	16807.7
789.191	15105.2
784.441	11326.9
779.687	8268.73
774.927	7421.13
770.162	7783.88
765.394	9103.83
760.62	10211.1
755.842	9921.46
751.06	8256.51
746.272	7182.43
741.48	7325.99
736.684	5101.87
731.883	3197.31
727.077	4119.51
722.268	3566.6
717.452	1393.23
712.633	1951.98
707.809	1756.74
702.979	1683.39
698.146	938.022
693.309	118.966
688.466	-5.053256
683.618	6.943596
678.766	-12.0657
673.909	-62.4777
669.048	37.4775
664.182	139.285
659.311	109.074
654.435	-27.5445
649.555	36.0852
644.669	303.234
639.779	507.815
634.885	1514.95
629.985	3252.73
625.082	11785.9
620.173	37338.5
615.26	5918.5
610.341	1037.84
605.418	-39.4287