File: Finalized Code/RAMAN Data MITACs/TULSI/PMMA on Si substrate/Si-hydrophilic-with PMMA-2.txt
#Wave		#Intensity
1800.53	27849.9
1795.68	27514.5
1790.83	28217.7
1785.97	27871.9
1781.11	27928.5
1776.24	28023.2
1771.37	28368.1
1766.49	28472.3
1761.61	28535.6
1756.72	28736.1
1751.83	28877.8
1746.93	28823.4
1742.03	29223.5
1737.12	29359
1732.21	28914.1
1727.29	29307.7
1722.37	29713.1
1717.44	29410.5
1712.51	29830
1707.57	29686.6
1702.63	30004.2
1697.68	29752.7
1692.73	29534.2
1687.77	29343.8
1682.81	29740.6
1677.84	30269.4
1672.87	30634.3
1667.89	30881
1662.91	31371.9
1657.92	31916.6
1652.93	32163.6
1647.94	33513.3
1642.93	34392.5
1637.93	35968.2
1632.91	38019.9
1627.9	39764.8
1622.87	43131.5
1617.85	45513.7
1612.81	48301.4
1607.78	51705.9
1602.73	55614.3
1597.68	60325.8
1592.63	66522.6
1587.57	71018.9
1582.51	75506
1577.44	80114
1572.37	83996.3
1567.29	87846.1
1562.2	92390.5
1557.12	93974
1552.02	94826.1
1546.92	97401.8
1541.82	101783
1536.71	103850
1531.59	107527
1526.47	113078
1521.34	118032
1516.21	117860
1511.08	119441
1505.94	119568
1500.79	115338
1495.64	113268
1490.48	110915
1485.32	107760
1480.15	104634
1474.98	101857
1469.8	98277.6
1464.61	96009
1459.42	93562.6
1454.23	89808.2
1449.03	85360.1
1443.83	82836.1
1438.62	80111.8
1433.4	77519.4
1428.18	77170.4
1422.95	78750.7
1417.72	79804.4
1412.48	78736.1
1407.24	75661.8
1401.99	72154.9
1396.74	70446.1
1391.48	69315.7
1386.22	70785.5
1380.95	73744.8
1375.67	73064.8
1370.39	70062.3
1365.1	68280.8
1359.81	67239
1354.52	66429.4
1349.21	66628.3
1343.91	65443.4
1338.59	64539.5
1333.27	63827
1327.95	63169.6
1322.62	63970.4
1317.28	64167.6
1311.94	65177.6
1306.59	67128
1301.24	70281.1
1295.88	73453
1290.52	73277
1285.15	73893.9
1279.78	76301.7
1274.4	76153
1269.01	74317.6
1263.62	73370
1258.22	71635.7
1252.82	70305.7
1247.41	72374.8
1242	73952.1
1236.58	74795.8
1231.16	73469.9
1225.72	73507.8
1220.29	72211
1214.85	70713.2
1209.4	71893.4
1203.94	75227.6
1198.49	76831.2
1193.02	79394.7
1187.55	82164.2
1182.07	85461.9
1176.59	88888.7
1171.1	91630.1
1165.61	95373.7
1160.11	98914.8
1154.61	101761
1149.09	103678
1143.58	104117
1138.05	103622
1132.53	99904.8
1126.99	93982.3
1121.45	88069.9
1115.91	81781.7
1110.35	76055.7
1104.8	70720.1
1099.23	68379.6
1093.66	65829.4
1088.09	64467.6
1082.51	62943.5
1076.92	61135.2
1071.33	58665.3
1065.73	55744.8
1060.12	54919.9
1054.51	53668.5
1048.9	53188.5
1043.28	51779.9
1037.65	49591.4
1032.01	48266.7
1026.37	47635.3
1020.73	46775.9
1015.07	44749.2
1009.42	45390.2
1003.75	46073.6
998.08	47969.2
992.404	48635.1
986.722	51599.1
981.033	54057.9
975.338	56028.5
969.638	59507.6
963.931	62283.5
958.218	62938.3
952.499	61130.4
946.774	62076
941.043	62850.2
935.306	60932.9
929.562	55721.7
923.813	49662.2
918.058	47250.2
912.296	47657.7
906.528	45091
900.754	46198
894.974	46785.8
889.188	48600.4
883.395	50136
877.596	48914.8
871.791	47016.6
865.979	46533.7
860.162	46216.3
854.338	45168.8
848.508	44994.4
842.672	45012.2
836.829	43639
830.979	43032.5
825.125	42123.3
819.264	40360.4
813.396	39322.3
807.521	38712.2
801.641	36272.7
795.754	36366.8
789.86	37725.6
783.961	37079.5
778.056	38141.5
772.143	40125.2
766.225	39009.5
760.299	36783
754.368	35241.1
748.43	36429
742.485	36119.5
736.535	35609.9
730.577	35331.1
724.614	35620.4
718.644	35738.2
712.667	35714
706.684	35958.1
700.694	34982
694.698	34832
688.695	35503.2
682.687	36684.4
676.671	38504.2
670.648	39148.4
664.619	37700.1
658.584	36531.2
652.542	35393.6
646.493	36200.6
640.438	35528.1
634.376	36702.7
628.308	38389.3
622.233	38509.3
616.151	38829.4
610.062	36548.8
603.968	35506.3
597.866	34243.8
591.758	32582.6
585.643	31710.5
579.521	31649.4
573.393	31003.5
567.258	32632.8
561.115	33099.5
554.967	34073.1
548.812	35610.6
542.649	37080.1
536.48	38955.8
530.305	44001
524.122	92305.4
517.933	316557
511.736	60064
505.534	50181.5
499.324	42797.5
493.107	41094.9
486.884	38798.1
480.653	38815.2
474.416	37964.3
468.172	37713.1
461.921	37410.7
455.663	36599.8
449.397	39306.5
443.126	39711.4
436.848	39011.4
430.562	38865.3
424.269	38337.8
417.969	38368.4
411.662	38913.8
405.349	38413.4
400.293	37898.8