File: Finalized Code/RAMAN Data MITACs/TULSI/PMMA on Si substrate/Si-hydrophilic-blank with PMMA.txt
#Wave		#Intensity
2001.44	3771.76
1995.86	3224.78
1990.27	3223.65
1984.68	3251.88
1979.08	3101.37
1973.47	3137.66
1967.86	3144.59
1962.24	3055.84
1956.61	3100
1950.98	2971.73
1945.34	2830.52
1939.7	2872.13
1934.04	2863.44
1928.38	2976.13
1922.72	2880.37
1917.04	2821.67
1911.36	2681.61
1905.68	2670.55
1899.98	2664.75
1894.28	2763.75
1888.58	2564.22
1882.86	2574.23
1877.14	2537.23
1871.42	2422.1
1865.68	2549.42
1859.94	2429.33
1854.19	2410.85
1848.44	2446.89
1842.67	2397.32
1836.91	2412.58
1831.13	2311.44
1825.35	2290.6
1819.56	2313.65
1813.76	2285.12
1807.96	2279.81
1802.15	2248.81
1796.33	2171.67
1790.51	2097.28
1784.68	2120.37
1778.84	2053.89
1772.99	2030.98
1767.14	2054.06
1761.28	2051.59
1755.42	1911.67
1749.54	1911.91
1743.66	1957.86
1737.78	1836.29
1731.88	1821.42
1725.98	1882.48
1720.07	1872.63
1714.15	1857.75
1708.23	1845.42
1702.3	1772.69
1696.36	1757.97
1690.42	1770.92
1684.47	1751.22
1678.51	1751.6
1672.54	1809.55
1666.57	1744.87
1660.59	1667.85
1654.6	1653.36
1648.6	1614
1642.6	1612.04
1636.59	1620.02
1630.58	1600.68
1624.55	1586.35
1618.52	1576.99
1612.48	1481.11
1606.43	1513.89
1600.38	1583.58
1594.32	1532.38
1588.25	1402.56
1582.17	1486.87
1576.09	1416.32
1570	1429.31
1563.9	1449.6
1557.8	1452.72
1551.68	1397.21
1545.56	1366.23
1539.43	1430.35
1533.3	1282.57
1527.16	1404.97
1521	1238.16
1514.85	1297.27
1508.68	1356.22
1502.51	1289.25
1496.33	1273.18
1490.14	1387.43
1483.94	1277.28
1477.74	1244.42
1471.53	1245.3
1465.31	1241.37
1459.08	1242.24
1452.85	1334.12
1446.61	1349.22
1440.36	1232.88
1434.1	1279.08
1427.83	1206
1421.56	1133.1
1415.28	1271.98
1408.99	1227.66
1402.7	1211.92
1396.39	1212.79
1390.08	1123.75
1383.76	1143.63
1377.43	1165.81
1371.1	1159.66
1364.75	1155.87
1358.4	1142.68
1352.04	1181.18
1345.68	1111.7
1339.3	1112.66
1332.92	1162.75
1326.53	1072.51
1320.13	1152.86
1313.73	1025.56
1307.31	1122.06
1300.89	1139.26
1294.46	1065.86
1288.02	1127.15
1281.57	1053.94
1275.12	1061.88
1268.66	1060.55
1262.19	1073.07
1255.71	1009.5
1249.22	1038.17
1242.72	1039.17
1236.22	978.166
1229.71	997.581
1223.19	1062.75
1216.66	999.659
1210.13	920.727
1203.58	1015.41
1197.03	984.508
1190.47	1026.52
1183.9	950.211
1177.33	1046.64
1170.74	972.767
1164.15	996.455
1157.54	1072.1
1150.93	946.509
1144.32	985.927
1137.69	1018.48
1131.05	1008.2
1124.41	1004.68
1117.76	1001.16
1111.1	990.932
1104.43	1041.18
1097.75	950.413
1091.07	976.012
1084.37	1003.77
1077.67	991.365
1070.96	1030.16
1064.24	1011.08
1057.51	1003.14
1050.77	992.997
1044.03	1082.5
1037.27	1196.09
1030.51	1388.88
1023.74	1448.86
1016.96	1574.76
1010.17	1810.32
1003.38	2152.92
996.57	2556.08
989.756	3560.81
982.933	4390.07
976.101	4812.87
969.26	5123.24
962.411	5443.71
955.553	5600.06
948.687	6101.74
941.811	6695.51
934.926	6378.95
928.033	3808.17
921.131	2046.59
914.22	1782.53
907.301	1732.77
900.372	1737.02
893.435	1601.34
886.487	1575.64
879.532	1558.59
872.567	1524.42
865.595	1531.03
858.612	1544.03
851.621	1445.93
844.62	1497.39
837.611	1467.77
830.593	1510.55
823.565	1508.6
816.528	1508.78
809.482	1483.51
802.428	1485.83
795.364	1412.04
788.291	1302.55
781.209	1330.38
774.117	1311.81
767.017	1207.07
759.907	1262.21
752.788	1250.08
745.659	1206.57
738.522	1144.33
731.375	1190.9
724.219	1122.58
717.054	1127.37
709.879	1142.55
702.694	1259.54
695.501	1307.71
688.298	1403.44
681.086	1428.52
673.864	1521.77
666.633	1596.19
659.392	1472.43
652.142	1534.35
644.882	1501.49
637.613	1485.15
630.335	1546.8
623.046	1665.65
615.749	1643.01
608.441	1510.08
601.124	1348.92
593.798	1294.16
586.462	1221.22
579.116	1258.24
571.761	1254.56
564.396	1386.71
557.021	1552.93
549.636	1838.02
542.241	2544.39
534.837	4337.91
527.424	12076.2
520	224838
512.566	15256.2
505.123	4583.87
497.67	2608.45
490.207	2032.78
482.734	1754.35
475.251	1456.7
467.759	1375.05
460.256	1249.84
452.743	1429.05
445.221	1665.34
437.688	1916.86
430.146	2106.34
422.593	1945.38
415.03	1917.13
407.457	1918.52
399.874	1949.44
392.281	2001.91
384.678	2036.56
377.064	2131.91
369.441	2103.6
361.808	2118.4
354.164	2303.1
346.51	2401.46
338.846	2624.24
331.171	2780.27
323.486	3196.24
315.791	3869.16
308.086	5003.4
300.37	7202.82
292.644	3842.02
284.907	3006.96
277.16	2686.82
269.402	2469.56
261.635	2285.54
253.856	2132.74
246.068	2158.62
238.269	1977.67
230.459	1971.18
222.639	1575.2
214.808	1370.96
206.966	1237.72
200.424	1154.54