File: Finalized Code/RAMAN Data MITACs/TULSI/PMMA on Si substrate/Si-hydrophilic-with PMMA-1.txt
#Wave		#Intensity
1800.53	29686.5
1795.68	29811.6
1790.83	29869
1785.97	30533.3
1781.11	30507.9
1776.24	30257.5
1771.37	30490.3
1766.49	30620.5
1761.61	30299.3
1756.72	30918.2
1751.83	30945.7
1746.93	31298.4
1742.03	31706.2
1737.12	31514.6
1732.21	32012.4
1727.29	32015.7
1722.37	32592.9
1717.44	32769.8
1712.51	32529.9
1707.57	33140
1702.63	32937.9
1697.68	33521.1
1692.73	34020.2
1687.77	34242
1682.81	34162.3
1677.84	34719.2
1672.87	34917
1667.89	35544.4
1662.91	36287.9
1657.92	37536.4
1652.93	38832.2
1647.94	40932.2
1642.93	44458.4
1637.93	48295.6
1632.91	52656.3
1627.9	56576.5
1622.87	60159.2
1617.85	64358.3
1612.81	71182.3
1607.78	80645.6
1602.73	88135
1597.68	95128.4
1592.63	100122
1587.57	102853
1582.51	104928
1577.44	107643
1572.37	114708
1567.29	122432
1562.2	131215
1557.12	138479
1552.02	143194
1546.92	144623
1541.82	144339
1536.71	142258
1531.59	139751
1526.47	139559
1521.34	135697
1516.21	131414
1511.08	124483
1505.94	118174
1500.79	108855
1495.64	100111
1490.48	94981.7
1485.32	92809
1480.15	91825.4
1474.98	90795.6
1469.8	90214.7
1464.61	90664.9
1459.42	90044.3
1454.23	84587.6
1449.03	79099
1443.83	75625.1
1438.62	74133.5
1433.4	71470.9
1428.18	68234.4
1422.95	64902.2
1417.72	62085.7
1412.48	59883.2
1407.24	60410.3
1401.99	60872.1
1396.74	61032.1
1391.48	60872.2
1386.22	62081.3
1380.95	60305.1
1375.67	57744.6
1370.39	55611.1
1365.1	54579
1359.81	53690
1354.52	53169.4
1349.21	53229.4
1343.91	52759.4
1338.59	52465.9
1333.27	53165
1327.95	52930
1322.62	53141.3
1317.28	55274.1
1311.94	57316.1
1306.59	59267.7
1301.24	61510.5
1295.88	64645.1
1290.52	65684.8
1285.15	66599.3
1279.78	66449.1
1274.4	66565
1269.01	65830.3
1263.62	65159.3
1258.22	64471.2
1252.82	64111.5
1247.41	63197.9
1242	62322.9
1236.58	61936.4
1231.16	60635.4
1225.72	59062
1220.29	59380.3
1214.85	59574.4
1209.4	60638.4
1203.94	61946.5
1198.49	62013.9
1193.02	63718.4
1187.55	66342.8
1182.07	70261.5
1176.59	77241
1171.1	83310
1165.61	90387.8
1160.11	95739.9
1154.61	93889.8
1149.09	89040
1143.58	83870.9
1138.05	80979.6
1132.53	75545.9
1126.99	68302.1
1121.45	63535.4
1115.91	57490.6
1110.35	54177.5
1104.8	51661.8
1099.23	49849.2
1093.66	46552.1
1088.09	45114.6
1082.51	44716.9
1076.92	46061.9
1071.33	46874.4
1065.73	45860.2
1060.12	44215.2
1054.51	41981.5
1048.9	41680
1043.28	41328.3
1037.65	41837.3
1032.01	39160.2
1026.37	37945
1020.73	37801.2
1015.07	37833.7
1009.42	38893.3
1003.75	39711
998.08	42039.1
992.404	42172.1
986.722	44794.7
981.033	46320.1
975.338	46784.4
969.638	47452.8
963.931	48582.1
958.218	50257.8
952.499	52369.5
946.774	55028.7
941.043	56270.7
935.306	53421.2
929.562	48421.7
923.813	43136.3
918.058	41594
912.296	40797.9
906.528	38266.6
900.754	36949.8
894.974	36249.3
889.188	36401.9
883.395	36176
877.596	36622.3
871.791	38435.2
865.979	37209.8
860.162	36633
854.338	36416.3
848.508	36678.2
842.672	36564.1
836.829	37059.5
830.979	38045.2
825.125	41292.3
819.264	41165.1
813.396	38817.5
807.521	35193.3
801.641	34914.1
795.754	33891.4
789.86	32290
783.961	32088.6
778.056	31554.5
772.143	32101.4
766.225	32787.9
760.299	31847.3
754.368	31861.1
748.43	32040.4
742.485	32472.6
736.535	32688.4
730.577	31370.4
724.614	30697.8
718.644	31375.4
712.667	32472
706.684	32765.4
700.694	32727.8
694.698	33777.7
688.695	35242
682.687	35870.5
676.671	34675.1
670.648	34916.4
664.619	34903.1
658.584	32617.6
652.542	32590.3
646.493	32227.7
640.438	32340.5
634.376	32779.5
628.308	31566.6
622.233	32144.7
616.151	33253.4
610.062	31475.6
603.968	30224.3
597.866	29365.2
591.758	29051.9
585.643	28240.7
579.521	28285
573.393	29364.8
567.258	29904.6
561.115	29539.5
554.967	30794.3
548.812	31508.6
542.649	32291.9
536.48	34993.9
530.305	42842.4
524.122	102442
517.933	370060
511.736	54910.4
505.534	40720.2
499.324	35589.1
493.107	33918.4
486.884	33145.2
480.653	33198.5
474.416	33116
468.172	33607.6
461.921	32577.1
455.663	32909
449.397	33851.9
443.126	35003
436.848	35461.7
430.562	36440.1
424.269	38021.3
417.969	36626.1
411.662	37128.1
405.349	37556
400.293	37648.7