File: Finalized Code/RAMAN Data MITACs/TULSI/PMMA on Si substrate/Si-hydrophobic-with PMMA-3.txt
#Wave		#Intensity
1800.53	150230
1795.68	150765
1790.83	151194
1785.97	151409
1781.11	151682
1776.24	151784
1771.37	151634
1766.49	152245
1761.61	151978
1756.72	152137
1751.83	152419
1746.93	153194
1742.03	152933
1737.12	154654
1732.21	154785
1727.29	154531
1722.37	154626
1717.44	154832
1712.51	154855
1707.57	155257
1702.63	155325
1697.68	154491
1692.73	156055
1687.77	157226
1682.81	158434
1677.84	159074
1672.87	159827
1667.89	161294
1662.91	163694
1657.92	164891
1652.93	166023
1647.94	168194
1642.93	171726
1637.93	176704
1632.91	180493
1627.9	186144
1622.87	192981
1617.85	202914
1612.81	212395
1607.78	224808
1602.73	238557
1597.68	253805
1592.63	270600
1587.57	286132
1582.51	302926
1577.44	321315
1572.37	336871
1567.29	349454
1562.2	362637
1557.12	372093
1552.02	380663
1546.92	389612
1541.82	398340
1536.71	409768
1531.59	417471
1526.47	423780
1521.34	429225
1516.21	432983
1511.08	440103
1505.94	290742
1500.79	290952
1495.64	438712
1490.48	432265
1485.32	430195
1480.15	431212
1474.98	429043
1469.8	421019
1464.61	410569
1459.42	400761
1454.23	391593
1449.03	386187
1443.83	381882
1438.62	376954
1433.4	368516
1428.18	363482
1422.95	364083
1417.72	370035
1412.48	374139
1407.24	370542
1401.99	367123
1396.74	361730
1391.48	349650
1386.22	341729
1380.95	337636
1375.67	328394
1370.39	322583
1365.1	320872
1359.81	320071
1354.52	319963
1349.21	319930
1343.91	319736
1338.59	319749
1333.27	319004
1327.95	316322
1322.62	312464
1317.28	309666
1311.94	309049
1306.59	311356
1301.24	319692
1295.88	326981
1290.52	335060
1285.15	340328
1279.78	341230
1274.4	331932
1269.01	322201
1263.62	315236
1258.22	310388
1252.82	309210
1247.41	309749
1242	305553
1236.58	302518
1231.16	301762
1225.72	299018
1220.29	297220
1214.85	297079
1209.4	303539
1203.94	313411
1198.49	323389
1193.02	329418
1187.55	339144
1182.07	353030
1176.59	367895
1171.1	379219
1165.61	391508
1160.11	399020
1154.61	405437
1149.09	405795
1143.58	398649
1138.05	384346
1132.53	370022
1126.99	354944
1121.45	333815
1115.91	312534
1110.35	293064
1104.8	278518
1099.23	265539
1093.66	253150
1088.09	242223
1082.51	235545
1076.92	229062
1071.33	225356
1065.73	219205
1060.12	215316
1054.51	210728
1048.9	204454
1043.28	198605
1037.65	192825
1032.01	189520
1026.37	187375
1020.73	184745
1015.07	183068
1009.42	181092
1003.75	182416
998.08	188446
992.404	185716
986.722	188423
981.033	193620
975.338	196141
969.638	197192
963.931	199361
958.218	203722
952.499	207807
946.774	208950
941.043	209396
935.306	206039
929.562	197808
923.813	188376
918.058	181857
912.296	175758
906.528	171751
900.754	172199
894.974	172419
889.188	174306
883.395	174637
877.596	173688
871.791	171815
865.979	169564
860.162	169688
854.338	170363
848.508	170174
842.672	170921
836.829	168984
830.979	167360
825.125	163524
819.264	158919
813.396	155637
807.521	152853
801.641	151019
795.754	148072
789.86	147190
783.961	144384
778.056	140614
772.143	140483
766.225	141187
760.299	141090
754.368	139139
748.43	139215
742.485	137749
736.535	137571
730.577	138297
724.614	139216
718.644	138313
712.667	138310
706.684	139400
700.694	142436
694.698	142640
688.695	144600
682.687	146286
676.671	146803
670.648	146051
664.619	145853
658.584	146296
652.542	144474
646.493	144387
640.438	143124
634.376	142931
628.308	141653
622.233	142422
616.151	141166
610.062	139671
603.968	137060
597.866	135933
591.758	134951
585.643	134378
579.521	133759
573.393	134218
567.258	134590
561.115	135443
554.967	135129
548.812	137073
542.649	140034
536.48	146118
530.305	152887
524.122	194049
517.933	362166
511.736	159435
505.534	150731
499.324	149022
493.107	150837
486.884	151303
480.653	148935
474.416	148232
468.172	149691
461.921	150839
455.663	149716
449.397	154016
443.126	154548
436.848	156050
430.562	159694
424.269	163385
417.969	167525
411.662	171492
405.349	169901
400.293	169837