File: Finalized Code/Tuned Standard Models/RAMAN Data MITACs/Bulk Carbon Ring Identification/Copy of PureCanolaOilnoBL.txt
#Wave		#Intensity
2964.05	2.136533
2955.52	21550.5
2946.97	44202.2
2938.42	100257
2929.85	126627
2921.28	136742
2912.69	155920
2904.1	178953
2895.49	186600
2886.88	174075
2878.25	140903
2869.62	127899
2860.98	142362
2852.32	176470
2843.66	89654.6
2834.99	31200.4
2826.31	12325.7
2817.61	4850.27
2808.91	2158.87
2800.2	1978.18
2791.48	959.5
2782.74	282.97
2774	343.432
2765.25	407.458
2756.49	1052.43
2747.72	2389.87
2738.93	5947.56
2730.14	9019.37
2721.34	9419.16
2712.53	8050.86
2703.71	5664.3
2694.88	4213.68
2686.03	4451.01
2677.18	4497.03
2668.32	3762.11
2659.45	3556.26
2650.56	3056.8
2641.67	2722.91
2632.77	2421.88
2623.86	2031.24
2614.93	2061.49
2606	2092.1
2597.06	1727.57
2588.1	1306.77
2579.14	1202.37
2570.17	798.939
2561.18	205.106
2552.19	466.403
2543.18	404.542
2534.17	10.5214
2525.14	-20.8827
2516.11	-87.8238
2507.06	-168.479
2498	95.2915
2488.94	65.1429
2479.86	-193.528
2470.77	191.826
2461.67	94.9116
2452.56	423.271
2443.44	569.279
2434.31	435.261
2425.17	374.931
2416.02	548.973
2406.86	425.089
2397.69	357.072
2388.51	240.62
2379.31	42.4134
2370.11	6.177282
2360.9	-161.3
2351.67	-28.8466
2342.44	142.931
2333.19	81.676
2323.93	130.45
2314.66	133.346
2305.38	363.365
2296.09	124.475
2286.79	232.119
2277.48	197.931
2268.16	382.585
2258.83	160.564
2249.48	130.306
2240.13	-63.9642
2230.76	181.333
2221.39	-68.2458
2212	50.4608
2202.6	207.022
2193.19	369.873
2183.77	450.48
2174.34	187.66
2164.89	31.9189
2155.44	190.611
2145.97	84.2885
2136.5	58.6664
2127.01	72.6837
2117.51	335.911
2108	69.8129
2098.48	157.725
2088.95	5.243179
2079.4	142.157
2069.85	-9.826227
2060.28	216.334
2050.7	65.6697
2041.11	274.466
2031.51	-6.863556
2021.9	-85.9147
2012.28	-150.723
2002.64	118.741
1992.99	-343.887
1983.34	-158.041
1973.67	-26.3367
1963.98	-104.069
1954.29	-86.7004
1944.59	290.87
1934.87	73.2065
1925.14	272.257
1915.4	364.985
1905.65	143.25
1895.88	25.9978
1886.11	444.415
1876.32	210.255
1866.52	342.622
1856.71	473.634
1846.89	214.888
1837.06	-105.448
1827.21	11.13
1817.35	425.44
1807.48	470.6
1797.6	522.508
1787.7	493.455
1777.8	620.768
1767.88	1203.89
1757.95	3325.69
1748	6280.55
1738.05	4426.4
1728.08	1809.86
1718.1	1073.31
1708.11	1035.15
1698.1	1143.54
1688.09	1023.31
1678.06	2156.37
1668.02	7315.2
1657.96	30456.7
1647.9	16546.8
1637.82	4075.58
1627.73	1879.19
1617.62	915.969
1607.51	613.69
1597.38	213.256
1587.24	127.516
1577.08	-109.208
1566.91	13.0433
1556.73	91.1629
1546.54	-128.425
1536.34	-147.825
1526.12	107.433
1515.89	560.649
1505.65	776.851
1495.39	1661.78
1485.12	3193.74
1474.84	7765.87
1464.54	18978.7
1454.24	31636.4
1443.92	42009.3
1433.58	34627.8
1423.23	9854.44
1412.88	4971.35
1402.5	3683.21
1392.12	1411.15
1381.72	1258.67
1371.3	2628.9
1360.88	2042.25
1350.44	2571.22
1339.99	3134.42
1329.52	5734.96
1319.04	10880
1308.55	19888.1
1298.04	23324.2
1287.53	13221
1276.99	14905.6
1266.45	19080.8
1255.89	14733.9
1245.31	7758.7
1234.73	3920.24
1224.13	2024.98
1213.51	1162.13
1202.88	875.208
1192.24	589.317
1181.59	381.011
1170.92	192.09
1160.24	-228.327
1149.54	-37.0557
1138.83	329.436
1128.11	1411.61
1117.37	3715.74
1106.62	3487.96
1095.85	6683.25
1085.07	11666.6
1074.28	11472.2
1063.47	10602.3
1052.65	5306.5
1041.82	3965.52
1030.97	3694.97
1020.1	3223.53
1009.23	2567.76
998.334	1702.14
987.428	2005.13
976.508	5445.15
965.572	4687.71
954.625	2359.84
943.66	2000.34
932.684	1833.32
921.691	1966.1
910.686	2256.61
899.664	2185.05
888.629	3329.89
877.58	3252.13
866.516	4030.61
855.438	3165.68
844.344	3075.1
833.236	2028.62
822.113	1050.16
810.977	821.145
799.824	305.367
788.658	-10.7337
777.477	28.1427
766.281	145.911
755.07	304.099
743.846	345.39
732.605	825.332
721.352	951.892
710.08	983.086
698.797	456.302
687.496	375.755
676.182	-60.0615
664.854	-180.981
653.508	-111.851
642.148	23.0514
630.775	280.552
619.385	306.553
607.98	824.374
596.561	755.463
585.127	686.691
573.676	305.113
562.211	33.7491
550.73	-71.7256
539.234	142.873
527.725	209.374
516.199	345.778
504.658	399.639
493.102	572.665
481.529	413.013
469.941	57.1205
458.34	-119.597
446.721	-134.491
435.088	30.5456
423.439	423.537