File: Finalized Code/Tuned Standard Models/RAMAN Data MITACs/Bulk Carbon Ring Identification/Copy of PureCyclohexanenoBL.txt
#Wave		#Intensity
2964.05	11.03
2955.52	21473.6
2946.97	72423.5
2938.42	235347
2929.85	162058
2921.28	215476
2912.69	102392
2904.1	75885.5
2895.49	82068.7
2886.88	77605.9
2878.25	50960.5
2869.62	59961.8
2860.98	96516.6
2852.32	291991
2843.66	75192
2834.99	19991.2
2826.31	8436.75
2817.61	3073.57
2808.91	1143.02
2800.2	3122.75
2791.48	787.119
2782.74	-3.221371
2774	118.287
2765.25	-5.531540
2756.49	-48.3358
2747.72	-139.256
2738.93	165.55
2730.14	488.077
2721.34	727.87
2712.53	1806.2
2703.71	4400.75
2694.88	7876.15
2686.03	6744.58
2677.18	5489.72
2668.32	12826.8
2659.45	10492.5
2650.56	3264.34
2641.67	1955.33
2632.77	8307.53
2623.86	2302.02
2614.93	2060.13
2606	3241.82
2597.06	2678.81
2588.1	1550.28
2579.14	1906.21
2570.17	566.251
2561.18	173.23
2552.19	129.048
2543.18	77.0257
2534.17	333.402
2525.14	569.749
2516.11	-5.920893
2507.06	-0.778813
2498	-149.006
2488.94	4.364715
2479.86	-100.161
2470.77	186.543
2461.67	916.411
2452.56	1119.11
2443.44	432.491
2434.31	25.9366
2425.17	-39.9296
2416.02	-123.674
2406.86	-151.863
2397.69	-92.6846
2388.51	-218.01
2379.31	138.244
2370.11	568.271
2360.9	399.249
2351.67	1249.42
2342.44	820.904
2333.19	241.816
2323.93	390.898
2314.66	385.536
2305.38	229.151
2296.09	-194.8
2286.79	61.7965
2277.48	91.7833
2268.16	105.21
2258.83	334.614
2249.48	614.056
2240.13	346.375
2230.76	783.667
2221.39	835.303
2212	538.888
2202.6	279.37
2193.19	97.0841
2183.77	-221.327
2174.34	72.231
2164.89	310.891
2155.44	165.597
2145.97	80.0314
2136.5	18.7585
2127.01	-8.299481
2117.51	202.69
2108	-64.6232
2098.48	-59.1855
2088.95	-264.858
2079.4	-208.822
2069.85	-296.561
2060.28	27.7317
2050.7	261.214
2041.11	-2.092107
2031.51	-7.984944
2021.9	-151.309
2012.28	-4.816007
2002.64	10.5966
1992.99	13.5961
1983.34	455.219
1973.67	618.889
1963.98	551.34
1954.29	377.094
1944.59	484.717
1934.87	292.611
1925.14	545.143
1915.4	390.575
1905.65	449.268
1895.88	497.32
1886.11	545.076
1876.32	549.89
1866.52	588.127
1856.71	516.55
1846.89	565.531
1837.06	636.289
1827.21	204.824
1817.35	283.528
1807.48	103.711
1797.6	120.267
1787.7	50.3393
1777.8	123.904
1767.88	99.0511
1757.95	-33.4591
1748	-37.5665
1738.05	-29.3271
1728.08	-166.343
1718.1	7.127578
1708.11	-117.594
1698.1	66.8205
1688.09	93.3199
1678.06	72.7882
1668.02	-49.8968
1657.96	-15.8512
1647.9	-86.5713
1637.82	31.8188
1627.73	38.7792
1617.62	202.898
1607.51	128.119
1597.38	252.822
1587.24	504.764
1577.08	558.168
1566.91	650.942
1556.73	643.3
1546.54	695.099
1536.34	926.42
1526.12	947.195
1515.89	1131.31
1505.65	1652.53
1495.39	2238.3
1485.12	3712.93
1474.84	4557.42
1464.54	8770.48
1454.24	16517.8
1443.92	41970
1433.58	15970.2
1423.23	9252.9
1412.88	4154.45
1402.5	2821.44
1392.12	2343.15
1381.72	2169.95
1371.3	2434.73
1360.88	3080.84
1350.44	7443.08
1339.99	5081.26
1329.52	2556.53
1319.04	2096.85
1308.55	2000.45
1298.04	3063.48
1287.53	5411.89
1276.99	13922.3
1266.45	40503.8
1255.89	12049.4
1245.31	4249.6
1234.73	2070.67
1224.13	990.486
1213.51	598.608
1202.88	303.03
1192.24	109.917
1181.59	-98.0806
1170.92	321.841
1160.24	5835.8
1149.54	1472.61
1138.83	145.093
1128.11	22.7648
1117.37	50.1267
1106.62	204.99
1095.85	98.0664
1085.07	140.875
1074.28	468.82
1063.47	1553.67
1052.65	3275.89
1041.82	8782.71
1030.97	35795.1
1020.1	17153.6
1009.23	4475.71
998.334	1658.21
987.428	428.272
976.508	8.325984
965.572	-162.203
954.625	-120.859
943.66	-128.533
932.684	-143.56
921.691	177.87
910.686	188.318
899.664	212.94
888.629	115.17
877.58	153.773
866.516	220.889
855.438	523.815
844.344	584.976
833.236	901.822
822.113	1425.07
810.977	4170.7
799.824	45373
788.658	4604.77
777.477	1960.28
766.281	916.239
755.07	440.691
743.846	223.836
732.605	-99.9326
721.352	-95.4296
710.08	12.2726
698.797	157.325
687.496	-14.6759
676.182	-212.15
664.854	-177.564
653.508	-220.777
642.148	-46.3421
630.775	126.563
619.385	146.1
607.98	175.858
596.561	-36.8631
585.127	-171.334
573.676	-54.479
562.211	139.915
550.73	310.62
539.234	309.433
527.725	512.839
516.199	280.955
504.658	62.3372
493.102	56.3789
481.529	216.198
469.941	57.2822
458.34	-75.4842
446.721	-510.927
435.088	191.068
423.439	1328.26