File: Finalized Code/Tuned Standard Models/RAMAN Data MITACs/Bulk Carbon Ring Identification/Copy of DMCAnoBL.txt
#Wave		#Intensity
1724.09	61.7212
1720.17	12.773
1716.25	-81.1176
1712.33	137.199
1708.4	92.1124
1704.47	38.3381
1700.54	-28.1103
1696.6	-101.003
1692.66	45.8994
1688.71	37.3503
1684.77	190.675
1680.82	96.383
1676.86	207.705
1672.91	128.532
1668.95	57.4717
1664.98	114.714
1661.01	23.5131
1657.04	59.8875
1653.07	-187.621
1649.09	-62.4557
1645.11	41.6206
1641.13	92.1458
1637.14	-118.028
1633.15	150.381
1629.16	6.179594
1625.16	5.998641
1621.16	-79.4024
1617.16	-85.5708
1613.15	-87.1195
1609.14	77.4741
1605.12	45.7336
1601.11	38.9219
1597.09	156.158
1593.06	73.1356
1589.04	94.6049
1585	37.6365
1580.97	55.5956
1576.93	99.101
1572.89	106.6
1568.85	68.4483
1564.8	105.403
1560.75	123.978
1556.69	274.087
1552.64	113.831
1548.57	151.529
1544.51	65.8594
1540.44	111.692
1536.37	-68.2612
1532.29	-45.8529
1528.21	22.1894
1524.13	-56.9204
1520.05	-112.225
1515.96	41.2691
1511.87	-105.454
1507.77	41.4615
1503.67	296.663
1499.57	227.896
1495.46	337.838
1491.35	977.257
1487.24	1140.27
1483.12	2020.31
1479	3124.97
1474.87	4149.44
1470.75	4932.23
1466.62	5447.41
1462.48	5541.49
1458.34	6360.76
1454.2	7417.7
1450.05	9473.05
1445.91	12279.4
1441.75	15400.8
1437.6	9643.99
1433.44	5405.92
1429.27	3031.84
1425.11	1864.58
1420.94	1273.09
1416.76	950.53
1412.58	762.721
1408.4	1352.25
1404.22	1365.69
1400.03	576.311
1395.84	104.892
1391.64	9.941768
1387.44	252.554
1383.24	459.943
1379.03	1493.77
1374.82	1637.4
1370.61	959.33
1366.39	694.039
1362.17	753.234
1357.95	945.212
1353.72	2018.44
1349.48	3829.5
1345.25	3854.45
1341.01	2600.58
1336.77	1941.36
1332.52	1467.39
1328.27	1325.8
1324.01	1401.12
1319.75	1271.97
1315.49	1583.73
1311.23	1672.41
1306.96	1902.48
1302.68	2648.74
1298.41	2601.61
1294.13	1956.28
1289.84	2234.18
1285.55	2483.32
1281.26	2896.35
1276.96	4082.47
1272.66	5636.71
1268.36	7222.7
1264.05	7890.34
1259.74	8034.72
1255.43	8178.74
1251.11	6443.55
1246.79	4679.14
1242.46	4167.38
1238.13	3619.73
1233.79	3050.02
1229.46	2903.61
1225.11	2518.91
1220.77	1928.64
1216.42	1483.53
1212.06	1313.53
1207.71	965.44
1203.34	1352.82
1198.98	2539.8
1194.61	684.513
1190.24	6.908977
1185.86	69.3075
1181.48	944.626
1177.09	2187.85
1172.7	556.159
1168.31	216.202
1163.91	774.858
1159.51	1195.73
1155.11	574.912
1150.7	89.3915
1146.29	34.2784
1141.87	-51.6045
1137.45	336.165
1133.02	1864.45
1128.59	3237.33
1124.16	1281.5
1119.72	612.741
1115.28	341.822
1110.84	135.999
1106.39	270.192
1101.93	526.443
1097.48	803.742
1093.02	655.559
1088.55	684.866
1084.08	690.583
1079.61	919.639
1075.13	1973.87
1070.65	2380.19
1066.16	1498.87
1061.67	2892.22
1057.18	4358.43
1052.68	5523.12
1048.18	5721.37
1043.67	4222.3
1039.16	4431.8
1034.64	3813.52
1030.12	4834.96
1025.6	8248.64
1021.07	3875.07
1016.54	1459.78
1012	560.475
1007.46	205.85
1002.92	26.2549
998.371	40.9008
993.818	325.763
989.261	886.649
984.699	3178.69
980.134	3638.11
975.563	869.174
970.989	135.403
966.411	91.5895
961.828	44.9859
957.241	-130.225
952.649	-47.599
948.054	-125.904
943.454	-20.4371
938.85	71.6159
934.241	27.266
929.628	252.8
925.011	210.658
920.39	209.805
915.764	205.072
911.133	-61.4094
906.498	34.2489
901.859	345.243
897.216	896.856
892.568	913.109
887.916	885.775
883.259	678.307
878.598	513.542
873.933	1215.28
869.263	1860.18
864.589	1711.56
859.91	5259.84
855.227	2272.81
850.539	1432.97
845.847	2456.36
841.15	3794.48
836.449	5359.73
831.744	5010.23
827.034	1897.54
822.319	1081.29
817.601	987.375
812.877	3089.3
808.149	2080.37
803.416	975.936
798.68	953.325
793.938	1394.2
789.191	3100.68
784.441	10091
779.687	31644.4
774.927	7020.87
770.162	2415.93
765.394	1176.11
760.62	794.922
755.842	505.048
751.06	431.003
746.272	214.308
741.48	306.115
736.684	111.698
731.883	38.1859
727.077	-76.5317
722.268	61.4094
717.452	124.401
712.633	-11.4633
707.809	85.5818
702.979	43.5764
698.146	11.093
693.309	12.6807
688.466	-34.0976
683.618	20.7576
678.766	25.0588
673.909	21.9845
669.048	-56.0027
664.182	20.5357
659.311	-55.3385
654.435	-3.248602
649.555	44.0593
644.669	146.006
639.779	380.178
634.885	1377.24
629.985	296.514
625.082	127.094
620.173	92.2675
615.26	-48.6515
610.341	-37.3018
605.418	13.6867