File: Finalized Code/Tuned Standard Models/RAMAN Data MITACs/Bulk Carbon Ring Identification/Copy of PureSoybeanOilnoBL.txt
#Wave		#Intensity
2964.05	3.714189
2955.52	23093
2946.97	45432.4
2938.42	104176
2929.85	129621
2921.28	139944
2912.69	154370
2904.1	172562
2895.49	183034
2886.88	171968
2878.25	141874
2869.62	130291
2860.98	142671
2852.32	173164
2843.66	88783.5
2834.99	30967.2
2826.31	12612.4
2817.61	4989.97
2808.91	1727.19
2800.2	1151.15
2791.48	859.31
2782.74	314.039
2774	13.4637
2765.25	89.3619
2756.49	937.538
2747.72	2697.79
2738.93	5981.82
2730.14	9400.3
2721.34	9796.64
2712.53	8145.97
2703.71	5749.89
2694.88	4933.82
2686.03	4854.61
2677.18	5082.9
2668.32	4612.05
2659.45	4256.27
2650.56	3759.66
2641.67	3463.77
2632.77	3062.96
2623.86	2471.51
2614.93	2717.36
2606	2581.14
2597.06	2207.96
2588.1	1831.02
2579.14	1586.77
2570.17	1138.21
2561.18	1215.79
2552.19	706.86
2543.18	922.77
2534.17	625.52
2525.14	465.638
2516.11	187.115
2507.06	123.844
2498	142.059
2488.94	88.8121
2479.86	84.9106
2470.77	306.472
2461.67	368.54
2452.56	470.501
2443.44	475.632
2434.31	398.361
2425.17	170.264
2416.02	753.568
2406.86	138.252
2397.69	419.026
2388.51	174.618
2379.31	56.6385
2370.11	119.83
2360.9	-119.333
2351.67	-86.7007
2342.44	25.008
2333.19	18.5704
2323.93	38.6425
2314.66	-12.5009
2305.38	104.821
2296.09	78.3185
2286.79	208.361
2277.48	-125.504
2268.16	246.852
2258.83	324.71
2249.48	-368.007
2240.13	72.296
2230.76	293.989
2221.39	190.819
2212	-85.2858
2202.6	220.645
2193.19	274.128
2183.77	584.516
2174.34	305.635
2164.89	165.029
2155.44	166.619
2145.97	112.273
2136.5	150.47
2127.01	422.655
2117.51	418.718
2108	626.536
2098.48	523.648
2088.95	404.673
2079.4	280.189
2069.85	276.268
2060.28	381.075
2050.7	344.76
2041.11	30.7794
2031.51	170.095
2021.9	226.614
2012.28	-65.2413
2002.64	-38.9284
1992.99	-274.586
1983.34	43.9753
1973.67	145.617
1963.98	-225.031
1954.29	-175.918
1944.59	89.2541
1934.87	228.394
1925.14	349.287
1915.4	358.861
1905.65	379.898
1895.88	90.0208
1886.11	304.978
1876.32	4.593652
1866.52	164.94
1856.71	8.964581
1846.89	97.1641
1837.06	-77.596
1827.21	103.324
1817.35	-80.5073
1807.48	596.638
1797.6	452.241
1787.7	577.869
1777.8	461.99
1767.88	1146.29
1757.95	3284.38
1748	7077.12
1738.05	5087.46
1728.08	1950.89
1718.1	1042.45
1708.11	944.154
1698.1	1448.04
1688.09	1165.51
1678.06	2643.62
1668.02	11151.4
1657.96	38424.3
1647.9	18326.3
1637.82	5665.58
1627.73	2348.41
1617.62	1285.49
1607.51	708.987
1597.38	134.611
1587.24	81.7548
1577.08	-301.41
1566.91	-168.482
1556.73	-111.999
1546.54	-11.4155
1536.34	-27.721
1526.12	52.9829
1515.89	257.72
1505.65	928.224
1495.39	1684.26
1485.12	3193.58
1474.84	8175.08
1464.54	19818.5
1454.24	32141.8
1443.92	43287.3
1433.58	35059.6
1423.23	11032.3
1412.88	5107.59
1402.5	3924.84
1392.12	2087.98
1381.72	1797.43
1371.3	2721.35
1360.88	2471.7
1350.44	2889.65
1339.99	3434.56
1329.52	6035.88
1319.04	11477.1
1308.55	20032
1298.04	23801.5
1287.53	14521
1276.99	18305.9
1266.45	24312.5
1255.89	19553
1245.31	10145.7
1234.73	4975.77
1224.13	2980.78
1213.51	1941.48
1202.88	1267.76
1192.24	967.449
1181.59	471.944
1170.92	47.0058
1160.24	8.179540
1149.54	-100.198
1138.83	-42.6717
1128.11	1528
1117.37	3035.48
1106.62	4706.86
1095.85	6820.83
1085.07	10862.6
1074.28	11938.2
1063.47	10464.6
1052.65	4629.41
1041.82	3512.33
1030.97	3205.65
1020.1	2931.13
1009.23	2009.79
998.334	1774.21
987.428	2342.4
976.508	7298.58
965.572	6428.21
954.625	3355.65
943.66	2577.41
932.684	2371.5
921.691	2495.92
910.686	3035.39
899.664	3015.56
888.629	3323.62
877.58	3552.88
866.516	3625.37
855.438	2899.97
844.344	3476.05
833.236	2828.02
822.113	1155.54
810.977	354.56
799.824	-45.6822
788.658	-77.7015
777.477	-55.2117
766.281	-64.6233
755.07	83.3814
743.846	405.765
732.605	1129.29
721.352	1239.26
710.08	647.684
698.797	193.056
687.496	45.3474
676.182	-296.176
664.854	-158.245
653.508	-158.398
642.148	20.5856
630.775	94.0234
619.385	233.457
607.98	661.126
596.561	969.066
585.127	451.442
573.676	523.77
562.211	379.598
550.73	11.7874
539.234	118.138
527.725	279.845
516.199	276.717
504.658	43.8004
493.102	42.7252
481.529	79.0346
469.941	-76.333
458.34	-112.514
446.721	-13.8608
435.088	91.1085
423.439	180.844