File: Finalized Code/Tuned Standard Models/RAMAN Data MITACs/Bulk Carbon Ring Identification/Copy of PureCyclohexane.txt
#Wave		#Intensity
2964.05	40827.9
2955.52	60122.5
2946.97	108976
2938.42	269880
2929.85	194658
2921.28	246233
2912.69	131399
2904.1	103238
2895.49	107865
2886.88	101944
2878.25	73939.3
2869.62	81678.4
2860.98	117067
2852.32	311469
2843.66	93689.3
2834.99	37596.7
2826.31	25235.9
2817.61	19148.6
2808.91	16572.2
2800.2	17980.7
2791.48	15144.4
2782.74	13919.8
2774	13669.4
2765.25	13231.9
2756.49	12929.4
2747.72	12628.7
2738.93	12769.7
2730.14	12970.3
2721.34	13126.4
2712.53	14155.4
2703.71	16731.6
2694.88	20216
2686.03	19117.7
2677.18	17917.3
2668.32	25327.2
2659.45	23081
2650.56	15954.2
2641.67	14757.1
2632.77	21229.8
2623.86	15351.2
2614.93	15241.1
2606	16557.8
2597.06	16131.5
2588.1	15140.1
2579.14	15632.6
2570.17	14427.7
2561.18	14167.4
2552.19	14253.1
2543.18	14327.4
2534.17	14706.4
2525.14	15061.3
2516.11	14600
2507.06	14715.4
2498	14673.2
2488.94	14928.7
2479.86	14922.5
2470.77	15304.1
2461.67	16125.8
2452.56	16417.7
2443.44	15818
2434.31	15496.6
2425.17	15514.7
2416.02	15514.3
2406.86	15569.2
2397.69	15711.9
2388.51	15671
2379.31	16113.1
2370.11	16631
2360.9	16552.3
2351.67	17495.8
2342.44	17164
2333.19	16685.4
2323.93	16939.2
2314.66	17043.1
2305.38	17000.7
2296.09	16695.9
2286.79	17076.8
2277.48	17236.6
2268.16	17385.2
2258.83	17755.3
2249.48	18181
2240.13	18065.1
2230.76	18659.4
2221.39	18873.3
2212	18744.1
2202.6	18656.4
2193.19	18650.4
2183.77	18512.3
2174.34	18989.8
2164.89	19415.5
2155.44	19460.1
2145.97	19566.5
2136.5	19698.9
2127.01	19866.7
2117.51	20272.9
2108	20200.8
2098.48	20400.6
2088.95	20388
2079.4	20635
2069.85	20735.6
2060.28	21244.8
2050.7	21659.2
2041.11	21572.2
2031.51	21737.3
2021.9	21759.1
2012.28	22064.1
2002.64	22231
1992.99	22377.8
1983.34	22955.1
1973.67	23245.7
1963.98	23296
1954.29	23230.1
1944.59	23436.1
1934.87	23332.1
1925.14	23662.2
1915.4	23574.4
1905.65	23688.9
1895.88	23781.7
1886.11	23863
1876.32	23890.1
1866.52	23939.4
1856.71	23867.8
1846.89	23905.7
1837.06	23954.7
1827.21	23490.8
1817.35	23526.9
1807.48	23294.5
1797.6	23249.1
1787.7	23108
1777.8	23101.9
1767.88	22989.4
1757.95	22761.8
1748	22655.8
1738.05	22556.1
1728.08	22305.7
1718.1	22361.1
1708.11	22114.4
1698.1	22173.8
1688.09	22073
1678.06	21923.7
1668.02	21671.6
1657.96	21576.5
1647.9	21377.8
1637.82	21370.1
1627.73	21253.8
1617.62	21298.4
1607.51	21108.7
1597.38	21123.7
1587.24	21272.2
1577.08	21229.1
1566.91	21233
1556.73	21144.9
1546.54	21125.4
1536.34	21295.1
1526.12	21264.6
1515.89	21408.3
1505.65	21900.4
1495.39	22469
1485.12	23938.6
1474.84	24790.6
1464.54	29023.9
1454.24	36804.6
1443.92	62303.2
1433.58	36363.2
1423.23	29718.9
1412.88	24706.6
1402.5	23472.8
1392.12	23106.7
1381.72	23058.3
1371.3	23460.3
1360.88	24255.5
1350.44	28778.5
1339.99	26588.4
1329.52	24246
1319.04	23978.6
1308.55	24083.7
1298.04	25356.9
1287.53	27923.4
1276.99	36659
1266.45	63472.1
1255.89	35254.9
1245.31	27697
1234.73	25763.9
1224.13	24932.6
1213.51	24791.8
1202.88	24748.8
1192.24	24808.6
1181.59	24853.3
1170.92	25524.9
1160.24	31288.7
1149.54	27172.7
1138.83	26089.1
1128.11	26206.8
1117.37	26469.6
1106.62	26854.8
1095.85	26972.7
1085.07	27234.2
1074.28	27774.5
1063.47	29064.9
1052.65	30985.8
1041.82	36684.1
1030.97	63880.8
1020.1	45416.3
1009.23	32908
998.334	30253
987.428	29178.5
976.508	28907.1
965.572	28878.5
954.625	29055.4
943.66	29177.3
932.684	29286.1
921.691	29726.1
910.686	29850
899.664	29983.5
888.629	29990.3
877.58	30129.4
866.516	30293.2
855.438	30689.3
844.344	30840.2
833.236	31243.4
822.113	31849.5
810.977	34674.3
799.824	75951.9
788.658	35254.6
777.477	32676
766.281	31692.3
755.07	31270.5
743.846	31099.8
732.605	30813.5
721.352	30845.5
710.08	30969.1
698.797	31117.1
687.496	30933.3
676.182	30707.7
664.854	30696.2
653.508	30587.2
642.148	30674.7
630.775	30738.4
619.385	30625.2
607.98	30498.3
596.561	30104.9
585.127	29766.5
573.676	29657.6
562.211	29607.1
550.73	29517.6
539.234	29246.5
527.725	29177.5
516.199	28680.2
504.658	28215.3
493.102	27997.1
481.529	27997
469.941	27752.9
458.34	27636.3
446.721	27350.4
435.088	28372.7
423.439	30045.2