File: Finalized Code/Tuned Standard Models/RAMAN Data MITACs/TULSI/PMMA on Si substrate/Si-hydrophilic-blank with PMMA-3.txt
#Wave		#Intensity
1800.53	7228.32
1795.68	6978.72
1790.83	6892.26
1785.97	6841.82
1781.11	6673.76
1776.24	6748.89
1771.37	6479.09
1766.49	6447.09
1761.61	6226.54
1756.72	6174.48
1751.83	6150.48
1746.93	6047.75
1742.03	5940.15
1737.12	5761.74
1732.21	5707.82
1727.29	5580.61
1722.37	5418.24
1717.44	5397.64
1712.51	5414.93
1707.57	5321.25
1702.63	5283.16
1697.68	5023.77
1692.73	4988.55
1687.77	4837.91
1682.81	4823
1677.84	4715.42
1672.87	4600.53
1667.89	4703.41
1662.91	4528.8
1657.92	4559.16
1652.93	4335.18
1647.94	4380.61
1642.93	4304.03
1637.93	4202.75
1632.91	4191.05
1627.9	3990.86
1622.87	3974.44
1617.85	3918.43
1612.81	3815.55
1607.78	3942.61
1602.73	3751.06
1597.68	3702.88
1592.63	3558.74
1587.57	3572.35
1582.51	3453.2
1577.44	3425.14
1572.37	3463.36
1567.29	3371.63
1562.2	3353.51
1557.12	3218.05
1552.02	3229.43
1546.92	3074.84
1541.82	3064.4
1536.71	3010.13
1531.59	2907.31
1526.47	2935.94
1521.34	2823.69
1516.21	2779.58
1511.08	2754.93
1505.94	2737.6
1500.79	2715.45
1495.64	2700.6
1490.48	2707.49
1485.32	2405.8
1480.15	2509.3
1474.98	2448.99
1469.8	2405.63
1464.61	2482.39
1459.42	2405.5
1454.23	2345.53
1449.03	2326.37
1443.83	2292.9
1438.62	2233.22
1433.4	2197.53
1428.18	2195.27
1422.95	2119.2
1417.72	2155.07
1412.48	2005.53
1407.24	2041.45
1401.99	1873.35
1396.74	1944.86
1391.48	1957.05
1386.22	1874.66
1380.95	1839.66
1375.67	1868.44
1370.39	1772.24
1365.1	1737.45
1359.81	1749.77
1354.52	1752.66
1349.21	1619.41
1343.91	1688.08
1338.59	1576.25
1333.27	1593.33
1327.95	1577.66
1322.62	1604.05
1317.28	1565.06
1311.94	1528.49
1306.59	1426.82
1301.24	1527.65
1295.88	1449.41
1290.52	1322.61
1285.15	1390.77
1279.78	1389.32
1274.4	1371.69
1269.01	1361.02
1263.62	1290.35
1258.22	1247.5
1252.82	1289.97
1247.41	1272.52
1242	1252.8
1236.58	1173.42
1231.16	1165.32
1225.72	1159.52
1220.29	1094.21
1214.85	1040.47
1209.4	1069.08
1203.94	1083.94
1198.49	1039.49
1193.02	1088.5
1187.55	975.898
1182.07	990.783
1176.59	998.825
1171.1	990.976
1165.61	974.08
1160.11	991.162
1154.61	1024.03
1149.09	986.824
1143.58	965.486
1138.05	971.232
1132.53	1003.98
1126.99	915.222
1121.45	871.579
1115.91	964.909
1110.35	948.202
1104.8	927.05
1099.23	901.468
1093.66	940.739
1088.09	897.336
1082.51	865.172
1076.92	857.576
1071.33	921.199
1065.73	849.098
1060.12	823.776
1054.51	916.064
1048.9	868.565
1043.28	1024.8
1037.65	1277.98
1032.01	1435.65
1026.37	1672.42
1020.73	1919.7
1015.07	2129.03
1009.42	2313.72
1003.75	2954.99
998.08	3474.18
992.404	4603.94
986.722	6675.19
981.033	7761.94
975.338	8251.95
969.638	8433.1
963.931	8951.85
958.218	9319.19
952.499	9870.69
946.774	10936.2
941.043	12116.6
935.306	11216.5
929.562	7564.33
923.813	3428.56
918.058	2493
912.296	2127.48
906.528	2110.1
900.754	2116.46
894.974	1864.46
889.188	1952.79
883.395	1918.47
877.596	1800.53
871.791	1772.88
865.979	1826.65
860.162	1685.65
854.338	1675.29
848.508	1590.25
842.672	1669.57
836.829	1672.03
830.979	1672.36
825.125	1727.95
819.264	1738.83
813.396	1664.85
807.521	1595.26
801.641	1553.34
795.754	1460.76
789.86	1313.48
783.961	1305.73
778.056	1236.9
772.143	1286.08
766.225	1206.89
760.299	1167.78
754.368	1118.26
748.43	1003.88
742.485	1036.29
736.535	1003.8
730.577	1023.61
724.614	1001.63
718.644	1029.73
712.667	1109.82
706.684	1023.33
700.694	1107.41
694.698	1172.62
688.695	1374.52
682.687	1511.78
676.671	1719.07
670.648	1872.18
664.619	1899.04
658.584	1709.34
652.542	1635.39
646.493	1576
640.438	1674.98
634.376	1654.68
628.308	1753.36
622.233	2005.46
616.151	1937.79
610.062	1622.94
603.968	1416.99
597.866	1270.63
591.758	1098.11
585.643	1131.5
579.521	1152.62
573.393	1212.28
567.258	1346.85
561.115	1533.81
554.967	1843.81
548.812	2634.31
542.649	3719.93
536.48	6094.22
530.305	12775.5
524.122	66234.9
517.933	322010
511.736	22474.3
505.534	7938.59
499.324	3965.93
493.107	2906.61
486.884	2333.52
480.653	1847.58
474.416	1612.11
468.172	1379.14
461.921	1162.61
455.663	1254.79
449.397	1767.88
443.126	2035.77
436.848	2568.65
430.562	2761.81
424.269	2634.16
417.969	2514.7
411.662	2448.76
405.349	2442.11
400.293	2467.51