File: Finalized Code/Tuned Standard Models/RAMAN Data MITACs/TULSI/PMMA on Si substrate/Si-hydrophobic-with PMMA-4.txt
#Wave		#Intensity
1800.53	31107
1795.68	31387.5
1790.83	31169
1785.97	30810
1781.11	30554
1776.24	30543.9
1771.37	30441.8
1766.49	30911.4
1761.61	30839.6
1756.72	30633
1751.83	30574.4
1746.93	30330.2
1742.03	30937
1737.12	30507.8
1732.21	30198.5
1727.29	30588.3
1722.37	30206.1
1717.44	30529.4
1712.51	30312
1707.57	30619.3
1702.63	30354.3
1697.68	30645.7
1692.73	30486.7
1687.77	30724.6
1682.81	30743.8
1677.84	31113.7
1672.87	31325.1
1667.89	31681.1
1662.91	32408.5
1657.92	32632.8
1652.93	33265.5
1647.94	33919.2
1642.93	35029.4
1637.93	36636.8
1632.91	37766.6
1627.9	40236.1
1622.87	42593.9
1617.85	45870.1
1612.81	49973
1607.78	54877.8
1602.73	59631.9
1597.68	64482.3
1592.63	66980.6
1587.57	68615.2
1582.51	71819.3
1577.44	77108.7
1572.37	81646.5
1567.29	86172.5
1562.2	88706.5
1557.12	91174.1
1552.02	92454.1
1546.92	93450.8
1541.82	95520.5
1536.71	97349.5
1531.59	98950.9
1526.47	99980.1
1521.34	103088
1516.21	104164
1511.08	103539
1505.94	103537
1500.79	103548
1495.64	103212
1490.48	101533
1485.32	100002
1480.15	96937.9
1474.98	95193.2
1469.8	90087.4
1464.61	86487.5
1459.42	82969.3
1454.23	78715.4
1449.03	75085.3
1443.83	71407.5
1438.62	68807.2
1433.4	67013.8
1428.18	64923.7
1422.95	63797.3
1417.72	62240.3
1412.48	59493.5
1407.24	58328.4
1401.99	56665.4
1396.74	55368.1
1391.48	54965.5
1386.22	54079.1
1380.95	54056.4
1375.67	53880.3
1370.39	53501.8
1365.1	53001.6
1359.81	53617.1
1354.52	54372.3
1349.21	54628.2
1343.91	54665.5
1338.59	55241.3
1333.27	56176.2
1327.95	57380.1
1322.62	57680.3
1317.28	57520.2
1311.94	57770.4
1306.59	58757.9
1301.24	60905.9
1295.88	62031.9
1290.52	62371.3
1285.15	64603.6
1279.78	65833.1
1274.4	65952
1269.01	64876
1263.62	63116.5
1258.22	62218.3
1252.82	60780.6
1247.41	61734.4
1242	61072.4
1236.58	60907.7
1231.16	59965.6
1225.72	58917.6
1220.29	60094.6
1214.85	61280.4
1209.4	62232.9
1203.94	64545.6
1198.49	67298
1193.02	71497.3
1187.55	76149.6
1182.07	80769.3
1176.59	86509.6
1171.1	91947.6
1165.61	95366.9
1160.11	97131.6
1154.61	96970.9
1149.09	95825.8
1143.58	93999.5
1138.05	89585.4
1132.53	84354.4
1126.99	77427.4
1121.45	70568.7
1115.91	64875.6
1110.35	60624.4
1104.8	58807.2
1099.23	55173
1093.66	51177.6
1088.09	48212.8
1082.51	46436.1
1076.92	45830.2
1071.33	44130.8
1065.73	42519.3
1060.12	41100
1054.51	39674.7
1048.9	38881.6
1043.28	38087.9
1037.65	37640.8
1032.01	37896.9
1026.37	37766.2
1020.73	37944.4
1015.07	37472.7
1009.42	37813.4
1003.75	38507.1
998.08	41760.4
992.404	41455.2
986.722	43288
981.033	44648.7
975.338	45392.3
969.638	46062.2
963.931	45498.5
958.218	45587.3
952.499	46992.4
946.774	47929.2
941.043	47478.6
935.306	46699.1
929.562	43845.4
923.813	40067
918.058	38298.8
912.296	36754.6
906.528	35610.6
900.754	36380.8
894.974	36316
889.188	36100.8
883.395	35477.8
877.596	35276.7
871.791	35131.7
865.979	35730.1
860.162	35813.7
854.338	36290.2
848.508	36825.4
842.672	36331.7
836.829	36475.9
830.979	36789.9
825.125	35917.1
819.264	34557.9
813.396	32635.3
807.521	31079.1
801.641	30480.5
795.754	29602.1
789.86	29050.7
783.961	28213.6
778.056	27270.7
772.143	26409.8
766.225	27235
760.299	26739.3
754.368	26353.7
748.43	26337.8
742.485	26196.2
736.535	26253.6
730.577	26532.3
724.614	26021.5
718.644	25972.4
712.667	26314.9
706.684	26556.8
700.694	26935.2
694.698	27871
688.695	29285.7
682.687	29048.9
676.671	28582.9
670.648	28754.3
664.619	29206
658.584	28252.5
652.542	27605.9
646.493	27501.8
640.438	27330
634.376	27213.9
628.308	26347.6
622.233	26570.8
616.151	26687
610.062	26054.9
603.968	26314.3
597.866	27307.3
591.758	26678.5
585.643	25226.8
579.521	24569
573.393	25246.7
567.258	24839.7
561.115	24543
554.967	25835.7
548.812	26870.7
542.649	27853
536.48	28470
530.305	31602.3
524.122	63304.2
517.933	194372
511.736	38332.8
505.534	30007
499.324	27404.8
493.107	28139.3
486.884	27394.4
480.653	27563.9
474.416	27064.6
468.172	26072.1
461.921	26511.2
455.663	26318.8
449.397	26319.5
443.126	26508.7
436.848	26990.7
430.562	27289.5
424.269	28214.4
417.969	27979.7
411.662	27650.7
405.349	27972.9
400.293	28290.7