File: Finalized Code/Tuned Standard Models/RAMAN Data MITACs/TULSI/PMMA on Si substrate/Si-hydrophobic-with PMMA-2.txt
#Wave		#Intensity
1800.53	107290
1795.68	106875
1790.83	107238
1785.97	107773
1781.11	107768
1776.24	108673
1771.37	108960
1766.49	108657
1761.61	108522
1756.72	108801
1751.83	109404
1746.93	110026
1742.03	109438
1737.12	110186
1732.21	110179
1727.29	111220
1722.37	112041
1717.44	112545
1712.51	111344
1707.57	111610
1702.63	111370
1697.68	112005
1692.73	111987
1687.77	113162
1682.81	113640
1677.84	114328
1672.87	115243
1667.89	117608
1662.91	119038
1657.92	120797
1652.93	122671
1647.94	124363
1642.93	126571
1637.93	129286
1632.91	132537
1627.9	137016
1622.87	142084
1617.85	150398
1612.81	158309
1607.78	168707
1602.73	179668
1597.68	193156
1592.63	205922
1587.57	218218
1582.51	231625
1577.44	246694
1572.37	255541
1567.29	263820
1562.2	274574
1557.12	286619
1552.02	299004
1546.92	308297
1541.82	316647
1536.71	327988
1531.59	337261
1526.47	345127
1521.34	347814
1516.21	351117
1511.08	353329
1505.94	360288
1500.79	362993
1495.64	366192
1490.48	370617
1485.32	374698
1480.15	372850
1474.98	365338
1469.8	355452
1464.61	342342
1459.42	332858
1454.23	326031
1449.03	315685
1443.83	307971
1438.62	301581
1433.4	298751
1428.18	297674
1422.95	297426
1417.72	304767
1412.48	306148
1407.24	306956
1401.99	306002
1396.74	298331
1391.48	290640
1386.22	282223
1380.95	274634
1375.67	271218
1370.39	271148
1365.1	274938
1359.81	274986
1354.52	272226
1349.21	265131
1343.91	261206
1338.59	259011
1333.27	256206
1327.95	251033
1322.62	247060
1317.28	245708
1311.94	249007
1306.59	253385
1301.24	258786
1295.88	264074
1290.52	270088
1285.15	276520
1279.78	279472
1274.4	274166
1269.01	267725
1263.62	263592
1258.22	256743
1252.82	249639
1247.41	245916
1242	246393
1236.58	245319
1231.16	244524
1225.72	243927
1220.29	242688
1214.85	244721
1209.4	251917
1203.94	258516
1198.49	263545
1193.02	268459
1187.55	277264
1182.07	295022
1176.59	311270
1171.1	325058
1165.61	336968
1160.11	343069
1154.61	342654
1149.09	336302
1143.58	333140
1138.05	324639
1132.53	308649
1126.99	292113
1121.45	280617
1115.91	264589
1110.35	249467
1104.8	236808
1099.23	224311
1093.66	212620
1088.09	203307
1082.51	198173
1076.92	191583
1071.33	187351
1065.73	182607
1060.12	179172
1054.51	172730
1048.9	165838
1043.28	161143
1037.65	157576
1032.01	156422
1026.37	155818
1020.73	153647
1015.07	150903
1009.42	150561
1003.75	154088
998.08	161109
992.404	156635
986.722	161251
981.033	161113
975.338	160264
969.638	162139
963.931	161447
958.218	162580
952.499	164179
946.774	166079
941.043	166484
935.306	168066
929.562	163560
923.813	157446
918.058	152968
912.296	149874
906.528	145377
900.754	144116
894.974	142859
889.188	145259
883.395	145591
877.596	145592
871.791	146210
865.979	146918
860.162	147713
854.338	145370
848.508	144717
842.672	144067
836.829	143267
830.979	141559
825.125	139093
819.264	137482
813.396	134878
807.521	130615
801.641	129291
795.754	127617
789.86	124124
783.961	124838
778.056	122916
772.143	120201
766.225	117891
760.299	117053
754.368	119451
748.43	119393
742.485	116574
736.535	116600
730.577	114418
724.614	116128
718.644	116342
712.667	115902
706.684	117719
700.694	122278
694.698	123582
688.695	125131
682.687	126850
676.671	128088
670.648	126430
664.619	125302
658.584	123163
652.542	121315
646.493	120290
640.438	121581
634.376	121570
628.308	120086
622.233	120082
616.151	119846
610.062	116400
603.968	117087
597.866	117037
591.758	115582
585.643	112717
579.521	110995
573.393	112275
567.258	111768
561.115	112564
554.967	114984
548.812	115936
542.649	117729
536.48	118939
530.305	124400
524.122	167616
517.933	349115
511.736	138668
505.534	128450
499.324	125767
493.107	126141
486.884	127728
480.653	127253
474.416	127574
468.172	127439
461.921	127179
455.663	128488
449.397	130398
443.126	127414
436.848	126639
430.562	128322
424.269	135040
417.969	141651
411.662	142141
405.349	142029
400.293	142607