File: Finalized Code/Tuned Standard Models/RAMAN Data MITACs/TULSI/PMMA on Si substrate/Si-hydrophobic-blank with PMMA-2.txt
#Wave		#Intensity
1800.53	17528.8
1795.68	17712.4
1790.83	17725.5
1785.97	17928.1
1781.11	17725.9
1776.24	17922.9
1771.37	17601.1
1766.49	18032.5
1761.61	18175
1756.72	17846.1
1751.83	18105.5
1746.93	18135.6
1742.03	17952.4
1737.12	18023.2
1732.21	18164.7
1727.29	18442.6
1722.37	18363.4
1717.44	18352.5
1712.51	18318.9
1707.57	18459.3
1702.63	18815.9
1697.68	19186.9
1692.73	19929.1
1687.77	21252.2
1682.81	23322.5
1677.84	24652
1672.87	25050.1
1667.89	24572.2
1662.91	23303.5
1657.92	21148.8
1652.93	20207.6
1647.94	19562.1
1642.93	19002.4
1637.93	18988.2
1632.91	19150.2
1627.9	19391.3
1622.87	19247.8
1617.85	19146.6
1612.81	19522.8
1607.78	20533.2
1602.73	25966.2
1597.68	35118.2
1592.63	27186.8
1587.57	22661.8
1582.51	21267.3
1577.44	21636.1
1572.37	20530
1567.29	19921
1562.2	19325.5
1557.12	19259.4
1552.02	19420.6
1546.92	19352
1541.82	19154.3
1536.71	19222.5
1531.59	19446.2
1526.47	19521.1
1521.34	19316.7
1516.21	19386.7
1511.08	19558.3
1505.94	19482.7
1500.79	19375.7
1495.64	19882.5
1490.48	20168.6
1485.32	19733.4
1480.15	19677
1474.98	19955.2
1469.8	20228
1464.61	20661
1459.42	21227.4
1454.23	20879.8
1449.03	21116.8
1443.83	21544.7
1438.62	21147.6
1433.4	20469.7
1428.18	19931.4
1422.95	19706.1
1417.72	19888.1
1412.48	19884.2
1407.24	20108.3
1401.99	19931.1
1396.74	19955.5
1391.48	20190.5
1386.22	20611.8
1380.95	20644.9
1375.67	20286.2
1370.39	20215.8
1365.1	20030.1
1359.81	20282.2
1354.52	20315.3
1349.21	20200.4
1343.91	20118.6
1338.59	20018.1
1333.27	20039.5
1327.95	20042.1
1322.62	20156.8
1317.28	20579.1
1311.94	20613.7
1306.59	20264.1
1301.24	20143.1
1295.88	20052.5
1290.52	20377.4
1285.15	20639
1279.78	21277.5
1274.4	21701.8
1269.01	21873.3
1263.62	22543.1
1258.22	22600.3
1252.82	22090.7
1247.41	21773.2
1242	21483.8
1236.58	21112.4
1231.16	20805.9
1225.72	20763.6
1220.29	20618.3
1214.85	20750
1209.4	20787.7
1203.94	20686.1
1198.49	21453.2
1193.02	22405.4
1187.55	23332.8
1182.07	23312.9
1176.59	24627.9
1171.1	25364
1165.61	24564.9
1160.11	25446.6
1154.61	23439.7
1149.09	22599.9
1143.58	22043.8
1138.05	21664.6
1132.53	21423.4
1126.99	21254.7
1121.45	21153.8
1115.91	20875.7
1110.35	20643
1104.8	20941.5
1099.23	20677.8
1093.66	20604.6
1088.09	20699
1082.51	20753
1076.92	20789
1071.33	20747
1065.73	20620.6
1060.12	20425.6
1054.51	20763.4
1048.9	20894.3
1043.28	21261.8
1037.65	21937.9
1032.01	28520.9
1026.37	22937.3
1020.73	21423.1
1015.07	21633.7
1009.42	22697.3
1003.75	39849.5
998.08	35472.7
992.404	25229.6
986.722	25404.3
981.033	24108.4
975.338	22952.9
969.638	22987.4
963.931	23824.4
958.218	24781.5
952.499	23858.5
946.774	23044
941.043	22852.2
935.306	23062.1
929.562	22452.5
923.813	21666.6
918.058	21345.1
912.296	21456.2
906.528	21139.8
900.754	20869.4
894.974	20941.8
889.188	21001.1
883.395	20955
877.596	20893.9
871.791	21043
865.979	20973.3
860.162	21526.3
854.338	21896.4
848.508	21702.1
842.672	21471.9
836.829	22458.5
830.979	22274.8
825.125	21506.9
819.264	21339.4
813.396	20881.7
807.521	20749
801.641	21463.1
795.754	21949.5
789.86	21480.2
783.961	20946.6
778.056	21294.8
772.143	21261.3
766.225	20962.9
760.299	21158.7
754.368	21014.1
748.43	21213.6
742.485	21263.9
736.535	20994.1
730.577	21270.1
724.614	21545.5
718.644	21978.6
712.667	22040.1
706.684	22226.3
700.694	25669.8
694.698	31961.7
688.695	26285.8
682.687	22912.7
676.671	21458.3
670.648	21265.6
664.619	21161.9
658.584	21326.5
652.542	21249.7
646.493	21273.9
640.438	21080.1
634.376	21527.3
628.308	21971.3
622.233	23633.2
616.151	25905.4
610.062	22457.4
603.968	21918.4
597.866	22424.7
591.758	23502.3
585.643	22322.7
579.521	21381.5
573.393	21550.9
567.258	21740.3
561.115	22095.4
554.967	21593.5
548.812	21632.4
542.649	21659.2
536.48	21689.9
530.305	22669.5
524.122	28592.6
517.933	51343.7
511.736	23199.3
505.534	21960
499.324	21456.9
493.107	21385.2
486.884	21817.5
480.653	21617.7
474.416	21432.2
468.172	21255.1
461.921	21267.5
455.663	21536.3
449.397	21494.6
443.126	21456.9
436.848	21615.5
430.562	21920.3
424.269	21937.5
417.969	21913.2
411.662	22062.6
405.349	22008.5
400.293	22050