File: Finalized Code/Tuned Standard Models/RAMAN Data MITACs/TULSI/PMMA on Si substrate/Si-hydrophilic-blank with PMMA-2.txt
#Wave		#Intensity
1800.53	9553
1795.68	9560.76
1790.83	9379.42
1785.97	9331.62
1781.11	9071.51
1776.24	8834.92
1771.37	8792.87
1766.49	8671.81
1761.61	8556.08
1756.72	8702.83
1751.83	8325.28
1746.93	8431.28
1742.03	8448.21
1737.12	8203.89
1732.21	7992.98
1727.29	7896.37
1722.37	7842.93
1717.44	7605.2
1712.51	7304.85
1707.57	7345.4
1702.63	7358.15
1697.68	7177.17
1692.73	7200.1
1687.77	7130.08
1682.81	6987.46
1677.84	6744.9
1672.87	6728.08
1667.89	6758.8
1662.91	6589.62
1657.92	6540.54
1652.93	6496.54
1647.94	6328.1
1642.93	6403.81
1637.93	6223.35
1632.91	6070.57
1627.9	6081.79
1622.87	5966.61
1617.85	5898.68
1612.81	5764.12
1607.78	5896.62
1602.73	5624.12
1597.68	5677.58
1592.63	5526.51
1587.57	5496.3
1582.51	5453.85
1577.44	5237.16
1572.37	5423.15
1567.29	5224.06
1562.2	5130.63
1557.12	4978.69
1552.02	4949.19
1546.92	4953.91
1541.82	4758.71
1536.71	4839.1
1531.59	4676.03
1526.47	4763.62
1521.34	4615.51
1516.21	4467.7
1511.08	4615.78
1505.94	4480.36
1500.79	4374.23
1495.64	4290.04
1490.48	4336.33
1485.32	4300.55
1480.15	4163.7
1474.98	4161.85
1469.8	4184.02
1464.61	4179.73
1459.42	4091.51
1454.23	4080.12
1449.03	4166.88
1443.83	4095.66
1438.62	4024.58
1433.4	3891.6
1428.18	3937.66
1422.95	3895.51
1417.72	3751.16
1412.48	3785.32
1407.24	3729.2
1401.99	3597.31
1396.74	3534.38
1391.48	3660.9
1386.22	3423.09
1380.95	3615.57
1375.67	3383
1370.39	3452.57
1365.1	3364.25
1359.81	3428.98
1354.52	3331.46
1349.21	3283.42
1343.91	3336.29
1338.59	3215.73
1333.27	3179.65
1327.95	3181.03
1322.62	3231.44
1317.28	3092.81
1311.94	3066.3
1306.59	3086.4
1301.24	33222.2
1295.88	3119.48
1290.52	3039.67
1285.15	3059.69
1279.78	2968.52
1274.4	2898.36
1269.01	2768.25
1263.62	2961.58
1258.22	2887.01
1252.82	2741.19
1247.41	2800.46
1242	2820.53
1236.58	2741.81
1231.16	2651.78
1225.72	2724.63
1220.29	2657.69
1214.85	2654.92
1209.4	2720.67
1203.94	2585.48
1198.49	2669.4
1193.02	2614.23
1187.55	2654.71
1182.07	2515.59
1176.59	2512.95
1171.1	2533
1165.61	2525.81
1160.11	2443.96
1154.61	2518.25
1149.09	2560.78
1143.58	2472.37
1138.05	2478.78
1132.53	2381.63
1126.99	2469.08
1121.45	2493.44
1115.91	2401.05
1110.35	2416.46
1104.8	2458.7
1099.23	2380.05
1093.66	2471.4
1088.09	2417.45
1082.51	2274.42
1076.92	2394.53
1071.33	2436.51
1065.73	2362.8
1060.12	2446.9
1054.51	2377.77
1048.9	2404.06
1043.28	2439.15
1037.65	2668.73
1032.01	3006.04
1026.37	3329.4
1020.73	3570.51
1015.07	3745.06
1009.42	4163.37
1003.75	4668.66
998.08	5346.25
992.404	6655.98
986.722	8764.47
981.033	9820.56
975.338	10430.8
969.638	10692.5
963.931	11189.3
958.218	11728.5
952.499	12386.2
946.774	13420.8
941.043	14739.7
935.306	13756.6
929.562	9804.82
923.813	5099.56
918.058	4127.61
912.296	3900.74
906.528	3717.49
900.754	3666.1
894.974	3634.19
889.188	3492.66
883.395	3478.17
877.596	3446.55
871.791	3410.7
865.979	3394.19
860.162	3240.81
854.338	3250.16
848.508	3255.21
842.672	3179.21
836.829	3167.28
830.979	3263.87
825.125	3164.72
819.264	3265.35
813.396	3259.71
807.521	3281.63
801.641	3110.91
795.754	2940.55
789.86	2827.57
783.961	2868.82
778.056	2819.36
772.143	2715.29
766.225	2748.1
760.299	2669.52
754.368	2607.89
748.43	2586.2
742.485	2508.04
736.535	2425.86
730.577	2387.72
724.614	2512.42
718.644	2347.11
712.667	2527.8
706.684	2498.02
700.694	2563.87
694.698	2756.17
688.695	2838.18
682.687	3112.6
676.671	3351.25
670.648	3312.48
664.619	3329.51
658.584	3313.52
652.542	3301.67
646.493	3234.29
640.438	3041.69
634.376	3143.07
628.308	3379.57
622.233	3627.85
616.151	3560.45
610.062	3164.11
603.968	2934.02
597.866	2796.2
591.758	2599.6
585.643	2670.02
579.521	2709.78
573.393	2651.99
567.258	2906.69
561.115	3142.59
554.967	3513.57
548.812	4126.34
542.649	5531.42
536.48	8014.68
530.305	15264.1
524.122	74558.1
517.933	368212
511.736	26931
505.534	10223.7
499.324	5807.61
493.107	4524.06
486.884	3933.19
480.653	3455.48
474.416	3018.71
468.172	2851.95
461.921	2709.45
455.663	2682.59
449.397	3259.65
443.126	3664.78
436.848	4211.72
430.562	4470.37
424.269	4184.6
417.969	4217.5
411.662	4017.47
405.349	4022.87
400.293	4076.41