File: Finalized Code/CNN Models/RAMAN Data MITACs/Bulk Carbon Ring Identification/Copy of PureSoybeanOil.txt
#Wave		#Intensity
2964.05	150392
2955.52	163461
2946.97	176683
2938.42	227140
2929.85	245066
2921.28	248576
2912.69	256837
2904.1	269458
2895.49	274906
2886.88	259313
2878.25	225150
2869.62	209913
2860.98	219017
2852.32	246578
2843.66	159579
2834.99	99427.1
2826.31	78992.8
2817.61	69521.9
2808.91	64618.7
2800.2	62589.1
2791.48	61011.4
2782.74	59330
2774	58027
2765.25	57219.5
2756.49	57289.7
2747.72	58365.3
2738.93	61047.1
2730.14	63935.5
2721.34	63865.2
2712.53	61803
2703.71	59043.5
2694.88	57905.5
2686.03	57540.2
2677.18	57513
2668.32	56812.8
2659.45	56249.9
2650.56	55565
2641.67	55096.4
2632.77	54536
2623.86	53795.8
2614.93	53901.9
2606	53633.1
2597.06	53133.3
2588.1	52634.6
2579.14	52272.4
2570.17	51709
2561.18	51674.3
2552.19	51055.2
2543.18	51162.6
2534.17	50758.4
2525.14	50493
2516.11	50110.1
2507.06	49943.7
2498	49860.1
2488.94	49706.2
2479.86	49603.1
2470.77	49726.9
2461.67	49692.8
2452.56	49700.1
2443.44	49612.4
2434.31	49444
2425.17	49126.7
2416.02	49622.8
2406.86	48922.2
2397.69	49119.8
2388.51	48794.2
2379.31	48597
2370.11	48583
2360.9	48268.6
2351.67	48227.8
2342.44	48267.8
2333.19	48191.4
2323.93	48143
2314.66	48024.8
2305.38	48076.3
2296.09	47985
2286.79	48051.2
2277.48	47654.2
2268.16	47963.9
2258.83	47979.4
2249.48	47224.4
2240.13	47602.4
2230.76	47761.5
2221.39	47595.2
2212	47255.2
2202.6	47496.4
2193.19	47484.1
2183.77	47727.4
2174.34	47380
2164.89	47169.3
2155.44	47099
2145.97	46971
2136.5	46933.5
2127.01	47127.8
2117.51	47043.9
2108	47169.4
2098.48	46981.8
2088.95	46775.8
2079.4	46561.8
2069.85	46465.9
2060.28	46476.3
2050.7	46343.1
2041.11	45929.8
2031.51	45967.4
2021.9	45919.9
2012.28	45521.7
2002.64	45439.4
1992.99	45093.1
1983.34	45298.9
1973.67	45285.8
1963.98	44798.7
1954.29	44729.5
1944.59	44874.8
1934.87	44892.6
1925.14	44890.8
1915.4	44776.5
1905.65	44672.5
1895.88	44256.6
1886.11	44344.7
1876.32	43916.8
1866.52	43949
1856.71	43664.4
1846.89	43623.7
1837.06	43319.7
1827.21	43371.2
1817.35	43057.9
1807.48	43605.7
1797.6	43331.9
1787.7	43328.4
1777.8	43083.6
1767.88	43639.2
1757.95	45648.9
1748	49313.6
1738.05	47196.2
1728.08	43932.2
1718.1	42896.7
1708.11	42671.6
1698.1	43049
1688.09	42640.2
1678.06	43992.3
1668.02	52374.1
1657.96	79521.2
1647.9	59297.2
1637.82	46510.4
1627.73	43067.1
1617.62	41877.6
1607.51	41174.2
1597.38	40472.4
1587.24	40291.6
1577.08	39779.7
1566.91	39783
1556.73	39709
1546.54	39678
1536.34	39528.9
1526.12	39475.6
1515.89	39544.9
1505.65	40078.5
1495.39	40696.1
1485.12	42065.3
1474.84	46904.9
1464.54	58404.7
1454.24	70582.4
1443.92	81580.4
1433.58	73203.2
1423.23	49024.4
1412.88	42946.1
1402.5	41607.7
1392.12	39613.2
1381.72	39162.9
1371.3	39924.9
1360.88	39511.5
1350.44	39763.6
1339.99	40140.8
1329.52	42572.4
1319.04	47842.2
1308.55	56223.8
1298.04	59818.4
1287.53	50361.4
1276.99	53968.2
1266.45	59795.3
1255.89	54855.1
1245.31	45265.7
1234.73	39912.6
1224.13	37733.3
1213.51	36508.7
1202.88	35648.7
1192.24	35161.3
1181.59	34477.9
1170.92	33864.4
1160.24	33636.2
1149.54	33337.9
1138.83	33204.7
1128.11	34584
1117.37	35899.5
1106.62	37378.1
1095.85	39298.5
1085.07	43145.9
1074.28	44026.1
1063.47	42356.1
1052.65	36323.4
1041.82	35007.4
1030.97	34500.4
1020.1	34023.9
1009.23	32898.9
998.334	32457.6
987.428	32817.8
976.508	37563.8
965.572	36480.6
954.625	33192.5
943.66	32195.7
932.684	31768.2
921.691	31667.8
910.686	31979.2
899.664	31727.8
888.629	31800.8
877.58	31791.6
866.516	31622.2
855.438	30651.6
844.344	30979.3
833.236	30080.1
822.113	28153.8
810.977	27096.9
799.824	26439.1
788.658	26148.5
777.477	25912
766.281	25644
755.07	25534.8
743.846	25602.3
732.605	26074.3
721.352	25937.3
710.08	25104.6
698.797	24416
687.496	24042.9
676.182	23485.9
664.854	23419.7
653.508	23228.2
642.148	23230
630.775	23141.5
619.385	23135.4
607.98	23434.8
596.561	23632.2
585.127	23022
573.676	23019.4
562.211	22817
550.73	22406.2
539.234	22482.2
527.725	22622.8
516.199	22603.2
504.658	22352.5
493.102	22324.6
481.529	22315.7
469.941	22085.1
458.34	21929.7
446.721	21848.4
435.088	21692.8
423.439	21418