File: Finalized Code/CNN Models/RAMAN Data MITACs/Bulk Carbon Ring Identification/Copy of PS.txt
#Wave		#Intensity
1724.09	7067.26
1720.17	7228.04
1716.25	7364.22
1712.33	7266.74
1708.4	7557.29
1704.47	7571.25
1700.54	7790.19
1696.6	7811.51
1692.66	8184
1688.71	8328.64
1684.77	8556.28
1680.82	8481.08
1676.86	8647.76
1672.91	8786.48
1668.95	8774.11
1664.98	8837.11
1661.01	9118.36
1657.04	9599.75
1653.07	10849.6
1649.09	11754.3
1645.11	11694.4
1641.13	11299.7
1637.14	10913.2
1633.15	10906.5
1629.16	11091.9
1625.16	11839.8
1621.16	13101.7
1617.16	14794.2
1613.15	18546.2
1609.14	30060.2
1605.12	57564.5
1601.11	64101.5
1597.09	34600.5
1593.06	22308.6
1589.04	20136.5
1585	34387.3
1580.97	28686.7
1576.93	16796
1572.89	13694.6
1568.85	12513.6
1564.8	11920.1
1560.75	11315.3
1556.69	11234.5
1552.64	11004.2
1548.57	10771.8
1544.51	10983.2
1540.44	10939.6
1536.37	10918.1
1532.29	10596.1
1528.21	10418.7
1524.13	10787.9
1520.05	10583.8
1515.96	10811
1511.87	10551.3
1507.77	10785.4
1503.67	10866.1
1499.57	11080.1
1495.46	12266
1491.35	11441.6
1487.24	10923.5
1483.12	10877.9
1479	10991.9
1474.87	11677.8
1470.75	11682.3
1466.62	12147.1
1462.48	13569.5
1458.34	16979.2
1454.2	22808.7
1450.05	23906
1445.91	22325.6
1441.75	19314
1437.6	16305.2
1433.44	13564.8
1429.27	11824
1425.11	11457.8
1420.94	11142.4
1416.76	11178.1
1412.58	11242.3
1408.4	11501.7
1404.22	11525.1
1400.03	11363
1395.84	11467.1
1391.64	11431.1
1387.44	12191.8
1383.24	13699.7
1379.03	14679.6
1374.82	15246.2
1370.61	15523.6
1366.39	15668.3
1362.17	15397.5
1357.95	15400.6
1353.72	15144.7
1349.48	15658.4
1345.25	16213.6
1341.01	17361.9
1336.77	19202.7
1332.52	20590.1
1328.27	21232.6
1324.01	20802.2
1319.75	19930.5
1315.49	18574.4
1311.23	18037.6
1306.96	17790.9
1302.68	17758.9
1298.41	17377.8
1294.13	17122.9
1289.84	16889.4
1285.55	16723.6
1281.26	16523.2
1276.96	16548
1272.66	16978
1268.36	17328.5
1264.05	17377.9
1259.74	17519.5
1255.43	17603.2
1251.11	17290.1
1246.79	17583.4
1242.46	17701.2
1238.13	17579.7
1233.79	17740.9
1229.46	18640.9
1225.11	19635.5
1220.77	20330.4
1216.42	21614.7
1212.06	26320.1
1207.71	33907.4
1203.34	41869.2
1198.98	46587.1
1194.61	46467.8
1190.24	40957.4
1185.86	41216.3
1181.48	45883.5
1177.09	29351.2
1172.7	20012.6
1168.31	18086.2
1163.91	18857.9
1159.51	27164.1
1155.11	36492.7
1150.7	21306.7
1146.29	13747.1
1141.87	11685.6
1137.45	10089.5
1133.02	9634.85
1128.59	9345.09
1124.16	9478.09
1119.72	10281.8
1115.28	11124.3
1110.84	11409.9
1106.39	12838.4
1101.93	14364.9
1097.48	14825.3
1093.02	14463.6
1088.55	14260.8
1084.08	14452.7
1079.61	14635.3
1075.13	14399.5
1070.65	15010.5
1066.16	14410.8
1061.67	13612.6
1057.18	13110.5
1052.68	13171.5
1048.18	14508.2
1043.67	18400.8
1039.16	30093
1034.64	66183.5
1030.12	73767.2
1025.6	35752.2
1021.07	18887.6
1016.54	15106.6
1012	20814.9
1007.46	61180.7
1002.92	275271
998.371	129590
993.818	39019.6
989.261	30093.4
984.699	17398.8
980.134	13217.4
975.563	10662.5
970.989	9437.99
966.411	9605.32
961.828	8981.5
957.241	7850.92
952.649	7552.99
948.054	7561.08
943.454	7582.13
938.85	7466.9
934.241	7269.78
929.628	7150.71
925.011	7439.42
920.39	7783.57
915.764	8654.39
911.133	10065.4
906.498	11087.1
901.859	10192.4
897.216	9215.75
892.568	8557.97
887.916	8828.11
883.259	8988.68
878.598	9219.42
873.933	9701.54
869.263	9692.35
864.589	9736.42
859.91	9361.17
855.227	9624.42
850.539	10127.2
845.847	11564.7
841.15	12083.7
836.449	10672.3
831.744	9219.07
827.034	8846.71
822.319	9296.56
817.601	10661.2
812.877	12712.6
808.149	14288.3
803.416	17762.8
798.68	23460.8
793.938	25019.5
789.191	23178.9
784.441	19256.4
779.687	16049.1
774.927	15048.5
770.162	15255.6
765.394	16418.5
760.62	17368.5
755.842	16922.6
751.06	15103.5
746.272	13878.6
741.48	13875.6
736.684	11510.4
731.883	9471.15
727.077	10265.9
722.268	9593.69
717.452	7309.83
712.633	7767.61
707.809	7481.51
702.979	7327.92
698.146	6513.38
693.309	5636.61
688.466	5466.7
683.618	5444.99
678.766	5404.86
673.909	5346.34
669.048	5451.77
664.182	5573.36
659.311	5578.2
654.435	5493.17
649.555	5626.59
644.669	5983.93
639.779	6301.9
634.885	7449.18
629.985	9358.36
625.082	18099.7
620.173	43904.3
615.26	12788.1
610.341	8273.56
605.418	7636.58