File: Finalized Code/Tuned Standard Models/RAMAN Data MITACs/ESMA/tcnpowder/Raw/Raw(3).txt
#Wave		#Intensity
1634.03	-11.7567
1630.04	7.315973
1626.05	15.8898
1622.05	195.305
1618.05	124.003
1614.04	195.067
1610.04	338.151
1606.03	460.84
1602.01	622.381
1598	2254.91
1593.98	1038.16
1589.95	433.154
1585.92	499.949
1581.89	1787.5
1577.86	975.515
1573.82	552.369
1569.78	152.305
1565.74	109.967
1561.69	77.5387
1557.64	32.7999
1553.58	39.5638
1549.52	16.682
1545.46	-23.5517
1541.4	11.9501
1537.33	7.949216
1533.26	28.1071
1529.18	23.488
1525.1	25.8859
1521.02	1.137622
1516.93	24.8636
1512.85	28.771
1508.75	51.8478
1504.66	188.863
1500.56	116.509
1496.45	65.8775
1492.35	49.0536
1488.24	39.3209
1484.12	7.632722
1480.01	41.1313
1475.89	28.5104
1471.76	49.582
1467.64	5.369495
1463.51	40.6767
1459.37	1.185659
1455.23	26.6647
1451.09	18.3895
1446.95	2.882588
1442.8	4.175599
1438.65	5.449713
1434.49	-19.6423
1430.33	-13.5686
1426.17	4.462161
1422	46.3753
1417.83	14.2124
1413.66	25.0721
1409.48	12.1017
1405.3	3.945054
1401.12	14.8696
1396.93	11.5394
1392.74	169.787
1388.54	61.9506
1384.35	37.3313
1380.14	3.301876
1375.94	11.969
1371.73	-12.4741
1367.52	-3.769421
1363.3	7.296683
1359.08	-9.956580
1354.86	19.9742
1350.63	14.5296
1346.4	74.9863
1342.16	15.4267
1337.92	31.1385
1333.68	30.386
1329.44	1.483738
1325.19	-3.950118
1320.93	-16.4121
1316.68	-3.139623
1312.42	3.081575
1308.15	2.268423
1303.88	15.435
1299.61	19.2354
1295.34	6.707998
1291.06	52.3537
1286.77	221.115
1282.49	264.137
1278.2	272.257
1273.9	642.066
1269.61	1998.12
1265.3	611.252
1261	353.052
1256.69	377.192
1252.38	175.053
1248.06	107.053
1243.74	82.9673
1239.41	144.129
1235.09	391.537
1230.75	771.839
1226.42	575.102
1222.08	1154.24
1217.74	677.909
1213.39	252.846
1209.04	96.308
1204.68	54.408
1200.32	62.8874
1195.96	23.4807
1191.59	70.8505
1187.22	118.198
1182.85	304.372
1178.47	192.373
1174.09	121.541
1169.7	53.1768
1165.31	3.152456
1160.92	-14.9835
1156.52	14.5326
1152.12	50.8575
1147.71	401.327
1143.3	270.304
1138.89	202.754
1134.47	36.2259
1130.05	16.4375
1125.63	48.4982
1121.2	165.983
1116.76	254.122
1112.33	1165.63
1107.88	813.43
1103.44	1232.38
1098.99	444.494
1094.54	143.208
1090.08	242.325
1085.62	1367.85
1081.15	1044.32
1076.68	311.506
1072.21	178.708
1067.73	110.633
1063.25	122.648
1058.76	374.333
1054.27	281.821
1049.78	78.6694
1045.28	37.4326
1040.78	0.647436
1036.27	23.5302
1031.76	-13.29
1027.25	5.024437
1022.73	1.197061
1018.2	45.7262
1013.68	10.9101
1009.15	-1.961112
1004.61	11.4375
1000.07	-3.803905
995.527	4.980142
990.979	35.5302
986.428	22.165
981.871	19.6341
977.311	-0.476531
972.746	7.685552
968.178	6.994872
963.604	-2.524513
959.026	5.254223
954.445	-4.486047
949.859	-7.812809
945.27	-4.741295
940.675	74.0611
936.076	91.9858
931.474	10.2711
926.866	-17.3642
922.255	4.617064
917.639	11.3705
913.019	56.8216
908.395	95.6556
903.766	7.440577
899.133	5.293300
894.495	15.9826
889.854	82.3815
885.207	80.0487
880.557	24.1737
875.902	11.1702
871.243	40.9266
866.579	177.381
861.911	1043.06
857.239	330.243
852.562	55.229
847.881	-6.531731
843.195	-4.376842
838.506	36.0461
833.812	29.7991
829.112	59.6592
824.409	261.014
819.701	1168.46
814.989	86.0186
810.272	177.283
805.552	80.7794
800.826	231.07
796.096	2098.79
791.361	949.59
786.622	189.24
781.879	39.1275
777.13	8.926716
772.378	-19.0225
767.62	-2.871663
762.858	30.0667
758.093	54.6716
753.322	511.309
748.547	1060.97
743.767	132.814
738.982	55.5279
734.193	32.4906
729.399	-11.2348
724.602	1.177369
719.799	63.3375
714.991	191.661
710.179	317.67
705.362	1832.5
700.541	3057.36
695.715	803.503
690.885	161.616
686.049	72.7752
681.209	88.9767
676.365	127.707
671.516	207.378
666.662	258.128
661.803	181.679
656.94	119.663
652.072	464.741
647.199	559.835
642.322	107.638
637.44	11.1549
632.554	-15.8688
627.662	38.5937
622.766	-6.656782
617.864	-13.1705
612.959	25.0477
608.048	8.535833
603.133	-1.759791
598.213	67.0126
593.288	143.88
588.358	463.122
583.425	245.182
578.485	433.012
573.541	314.538
568.593	176.328
563.639	92.788
558.681	51.6736
553.718	84.9068
548.749	202.221
543.776	167.023
538.799	5.640041
533.816	8.037528
528.829	-12.105
523.837	24.8264
518.84	12.7939
513.838	3.367408
508.831	6.096696
503.819	8.573884
498.803	-9.575745
493.781	18.5073