File: Finalized Code/Tuned Standard Models/RAMAN Data MITACs/ESMA/tcnpowder/Raw/Raw(5).txt
#Wave		#Intensity
1634.03	6.601269
1630.04	3.830798
1626.05	-6.908256
1622.05	100.883
1618.05	77.4862
1614.04	104.289
1610.04	240.368
1606.03	291.417
1602.01	502.879
1598	1558.09
1593.98	770.295
1589.95	291.556
1585.92	387.89
1581.89	1265.16
1577.86	774.032
1573.82	449.195
1569.78	142.28
1565.74	64.8632
1561.69	53.9431
1557.64	33.0983
1553.58	9.667331
1549.52	-1.662582
1545.46	11.3064
1541.4	9.298207
1537.33	14.3645
1533.26	-5.308490
1529.18	6.533963
1525.1	3.433625
1521.02	-7.246023
1516.93	20.8277
1512.85	4.781442
1508.75	49.3582
1504.66	159.283
1500.56	120.672
1496.45	38.2714
1492.35	60.1185
1488.24	35.7629
1484.12	28.276
1480.01	3.773151
1475.89	8.228015
1471.76	43.9974
1467.64	26.5825
1463.51	4.339253
1459.37	-3.441180
1455.23	12.8405
1451.09	2.644054
1446.95	2.077736
1442.8	8.723862
1438.65	-8.605395
1434.49	45.9963
1430.33	-4.806395
1426.17	-5.266319
1422	51.6583
1417.83	53.5907
1413.66	10.2138
1409.48	9.841166
1405.3	7.106658
1401.12	35.3284
1396.93	-10.194
1392.74	115.412
1388.54	43.7981
1384.35	19.7335
1380.14	-35.1026
1375.94	23.7788
1371.73	-19.1752
1367.52	-12.4504
1363.3	-3.407543
1359.08	22.0978
1354.86	42.8027
1350.63	61.07
1346.4	62.7822
1342.16	22.1155
1337.92	-16.1896
1333.68	18.2717
1329.44	26.8147
1325.19	28.2496
1320.93	6.206419
1316.68	-22.8808
1312.42	8.778550
1308.15	0.624807
1303.88	39.081
1299.61	40.1158
1295.34	27.1186
1291.06	53.6459
1286.77	247.462
1282.49	278.301
1278.2	325.291
1273.9	571.571
1269.61	1547.14
1265.3	458.638
1261	246.191
1256.69	299.824
1252.38	143.283
1248.06	125.414
1243.74	49.9768
1239.41	151.985
1235.09	306.752
1230.75	472.775
1226.42	287.201
1222.08	693.952
1217.74	398.586
1213.39	163.356
1209.04	38.451
1204.68	9.869044
1200.32	11.1178
1195.96	-24.061
1191.59	9.323805
1187.22	63.2528
1182.85	278.796
1178.47	123.381
1174.09	93.318
1169.7	65.6903
1165.31	-9.403717
1160.92	-16.2686
1156.52	-13.9507
1152.12	40.5027
1147.71	508.544
1143.3	345.893
1138.89	122.732
1134.47	26.2931
1130.05	47.2248
1125.63	27.7172
1121.2	24.0702
1116.76	132.804
1112.33	777.685
1107.88	614.44
1103.44	847.987
1098.99	309.153
1094.54	99.986
1090.08	168.21
1085.62	992.871
1081.15	794.886
1076.68	205.206
1072.21	126.256
1067.73	67.452
1063.25	82.0454
1058.76	305.219
1054.27	210.841
1049.78	27.9652
1045.28	26.8685
1040.78	3.590846
1036.27	4.581812
1031.76	-14.3817
1027.25	15.1142
1022.73	33.4374
1018.2	-1.214732
1013.68	5.868767
1009.15	-9.155250
1004.61	-4.520225
1000.07	8.748775
995.527	2.137316
990.979	17.2935
986.428	-2.713580
981.871	14.3249
977.311	-8.106683
972.746	-13.1871
968.178	9.933090
963.604	-8.491914
959.026	3.436757
954.445	30.4274
949.859	-7.889621
945.27	5.806271
940.675	21.5331
936.076	37.128
931.474	9.337458
926.866	-14.1652
922.255	24.913
917.639	16.397
913.019	48.7877
908.395	72.4619
903.766	5.716118
899.133	-2.902249
894.495	-13.6605
889.854	67.8396
885.207	59.1969
880.557	29.188
875.902	-9.281204
871.243	18.6182
866.579	138.33
861.911	767.665
857.239	287.807
852.562	38.8684
847.881	-13.8233
843.195	-0.434551
838.506	15.1671
833.812	22.3761
829.112	59.3615
824.409	178.965
819.701	835.663
814.989	52.3524
810.272	91.8011
805.552	38.5114
800.826	208.781
796.096	1536.55
791.361	660.16
786.622	172.106
781.879	39.7937
777.13	0.084706
772.378	-16.4298
767.62	6.915071
762.858	13.5358
758.093	55.6889
753.322	333.605
748.547	675.626
743.767	79.6374
738.982	52.8627
734.193	24.0098
729.399	20.0686
724.602	22.2758
719.799	90.7158
714.991	177.549
710.179	241.327
705.362	1673.25
700.541	2699.57
695.715	647.667
690.885	133.016
686.049	72.1961
681.209	77.1538
676.365	100.433
671.516	201.53
666.662	255.106
661.803	179.341
656.94	126.127
652.072	459.484
647.199	538.757
642.322	83.0062
637.44	11.5377
632.554	9.516043
627.662	5.540945
622.766	-4.404588
617.864	8.184287
612.959	-7.448522
608.048	-6.566964
603.133	10.8284
598.213	24.4972
593.288	66.8375
588.358	307.457
583.425	160.651
578.485	262.542
573.541	155.259
568.593	78.8103
563.639	31.057
558.681	17.8724
553.718	43.0711
548.749	118.432
543.776	173.554
538.799	38.2527
533.816	-13.442
528.829	13.8815
523.837	9.874695
518.84	25.9179
513.838	-2.354704
508.831	4.006494
503.819	8.296062
498.803	3.582121
493.781	24.4416