File: Finalized Code/Tuned Standard Models/RAMAN Data MITACs/ESMA/tcnpowder/Raw/Raw(4).txt
#Wave		#Intensity
1634.03	17.3578
1630.04	-8.425185
1626.05	2.839062
1622.05	145.46
1618.05	102.764
1614.04	178.376
1610.04	376.763
1606.03	439.242
1602.01	539.63
1598	1904.52
1593.98	808.622
1589.95	355.832
1585.92	470.268
1581.89	1656.79
1577.86	987.998
1573.82	525.121
1569.78	208.458
1565.74	108.995
1561.69	81.0243
1557.64	28.4886
1553.58	7.907431
1549.52	16.7306
1545.46	-33.3807
1541.4	24.2741
1537.33	3.420047
1533.26	24.0729
1529.18	10.3881
1525.1	21.0429
1521.02	14.5156
1516.93	-21.3311
1512.85	-8.496734
1508.75	48.0362
1504.66	189.488
1500.56	109.621
1496.45	39.5441
1492.35	22.8853
1488.24	28.0209
1484.12	21.0133
1480.01	9.154861
1475.89	31.1266
1471.76	45.8014
1467.64	14.603
1463.51	9.961692
1459.37	-16.3539
1455.23	12.7131
1451.09	12.8752
1446.95	13.0321
1442.8	-13.218
1438.65	1.337267
1434.49	-5.704542
1430.33	18.377
1426.17	1.741628
1422	30.5266
1417.83	64.0188
1413.66	25.8563
1409.48	30.6398
1405.3	13.9485
1401.12	-5.129069
1396.93	11.4514
1392.74	144.365
1388.54	46.7656
1384.35	8.570355
1380.14	10.6666
1375.94	5.597533
1371.73	2.839928
1367.52	0.021444
1363.3	13.669
1359.08	-1.089617
1354.86	38.3223
1350.63	61.1054
1346.4	64.9482
1342.16	45.197
1337.92	13.6586
1333.68	5.570791
1329.44	4.458098
1325.19	10.3042
1320.93	-12.023
1316.68	-25.0232
1312.42	-7.685015
1308.15	7.226430
1303.88	10.3903
1299.61	11.1645
1295.34	0.245350
1291.06	26.5313
1286.77	254.99
1282.49	269.326
1278.2	304.498
1273.9	673.482
1269.61	1785.46
1265.3	532.237
1261	289.51
1256.69	319.866
1252.38	177.044
1248.06	149.824
1243.74	85.8116
1239.41	141.68
1235.09	347.025
1230.75	618.716
1226.42	442.192
1222.08	970.417
1217.74	493.736
1213.39	171.427
1209.04	46.5666
1204.68	13.4688
1200.32	26.2109
1195.96	16.209
1191.59	42.8132
1187.22	99.0952
1182.85	316.995
1178.47	154.844
1174.09	58.9883
1169.7	61.0345
1165.31	-11.6496
1160.92	-20.6359
1156.52	-31.751
1152.12	0.249668
1147.71	473.002
1143.3	317.316
1138.89	164.277
1134.47	43.1755
1130.05	12.4705
1125.63	13.4189
1121.2	104.375
1116.76	188.52
1112.33	943.488
1107.88	726.492
1103.44	1051.97
1098.99	399.047
1094.54	136.367
1090.08	198.092
1085.62	1121.17
1081.15	936.699
1076.68	240.237
1072.21	170.443
1067.73	71.8738
1063.25	97.8866
1058.76	367.988
1054.27	251.728
1049.78	66.9668
1045.28	44.0863
1040.78	16.7758
1036.27	-6.123761
1031.76	-9.180142
1027.25	0.927733
1022.73	4.325520
1018.2	3.225909
1013.68	-19.9611
1009.15	-8.049767
1004.61	5.927216
1000.07	4.412457
995.527	20.3129
990.979	29.4942
986.428	-27.0846
981.871	1.536885
977.311	1.593105
972.746	-9.388894
968.178	-0.870680
963.604	5.321671
959.026	-19.0821
954.445	8.584095
949.859	-18.2084
945.27	15.6583
940.675	38.5039
936.076	87.1698
931.474	36.1295
926.866	4.525316
922.255	0.945628
917.639	18.8474
913.019	60.3328
908.395	75.8237
903.766	9.473686
899.133	14.1007
894.495	-9.247756
889.854	46.7659
885.207	27.6326
880.557	-4.338446
875.902	8.650687
871.243	40.8392
866.579	158.366
861.911	941.163
857.239	316.083
852.562	43.4812
847.881	3.265071
843.195	-17.7056
838.506	25.1043
833.812	44.5634
829.112	40.7443
824.409	189.424
819.701	1016.79
814.989	76.2725
810.272	98.0892
805.552	54.5778
800.826	247.215
796.096	1835.14
791.361	806.215
786.622	195.316
781.879	57.9271
777.13	-3.623004
772.378	-33.5466
767.62	18.2924
762.858	1.107393
758.093	86.384
753.322	424.084
748.547	855.018
743.767	110.379
738.982	10.226
734.193	35.0361
729.399	20.3584
724.602	3.647404
719.799	63.6754
714.991	150.508
710.179	295.095
705.362	1938.01
700.541	2927.25
695.715	694.031
690.885	132.513
686.049	74.4603
681.209	88.4729
676.365	114.741
671.516	177.867
666.662	300.31
661.803	207.302
656.94	120.577
652.072	530.999
647.199	548.289
642.322	110.315
637.44	38.2433
632.554	-5.143200
627.662	-7.696589
622.766	8.116007
617.864	13.8208
612.959	-29.0928
608.048	-4.889807
603.133	21.4366
598.213	27.6405
593.288	114.883
588.358	389.99
583.425	230.951
578.485	380.854
573.541	226.585
568.593	107.019
563.639	80.3194
558.681	41.7645
553.718	55.5293
548.749	183.516
543.776	171.022
538.799	12.3344
533.816	-4.525723
528.829	2.056485
523.837	-0.127732
518.84	12.579
513.838	7.955204
508.831	-6.384686
503.819	-22.9237
498.803	1.473691
493.781	18.4834