File: Finalized Code/Tuned Standard Models/RAMAN Data MITACs/ESMA/tcnpowder/Raw/Raw(1).txt
#Wave		#Intensity
1634.03	137.319
1630.04	122.262
1626.05	134.624
1622.05	323.824
1618.05	261.331
1614.04	288.466
1610.04	429.851
1606.03	531.278
1602.01	674.702
1598	1752.26
1593.98	918.729
1589.95	497.33
1585.92	608.161
1581.89	1684.62
1577.86	1026.71
1573.82	584.436
1569.78	275.957
1565.74	246.183
1561.69	236.137
1557.64	140.088
1553.58	144.881
1549.52	132.492
1545.46	139.735
1541.4	120.021
1537.33	151.736
1533.26	129.6
1529.18	129.491
1525.1	134.264
1521.02	139.029
1516.93	131.6
1512.85	121.749
1508.75	177.604
1504.66	333.029
1500.56	230.738
1496.45	184.434
1492.35	150.332
1488.24	169.586
1484.12	135.554
1480.01	140.276
1475.89	149.823
1471.76	137.623
1467.64	130.269
1463.51	106.055
1459.37	122.823
1455.23	125.125
1451.09	117.806
1446.95	120.108
1442.8	110.405
1438.65	122.302
1434.49	105.425
1430.33	126.881
1426.17	143.516
1422	169.683
1417.83	169.538
1413.66	138.377
1409.48	152.561
1405.3	135.759
1401.12	130.883
1396.93	149.792
1392.74	244.688
1388.54	159.03
1384.35	130.435
1380.14	111.367
1375.94	123.108
1371.73	123.002
1367.52	122.896
1363.3	160.572
1359.08	139.2
1354.86	148.509
1350.63	176.644
1346.4	178.845
1342.16	157.529
1337.92	162.091
1333.68	143.174
1329.44	150.086
1325.19	121.839
1320.93	128.756
1316.68	121.628
1312.42	147.228
1308.15	149.436
1303.88	146.973
1299.61	142.183
1295.34	172.334
1291.06	165.203
1286.77	355.691
1282.49	420.418
1278.2	452.541
1273.9	702.564
1269.61	1871.87
1265.3	678.189
1261	508.774
1256.69	464.427
1252.38	313.963
1248.06	288.316
1243.74	228.146
1239.41	285.507
1235.09	526.802
1230.75	781.463
1226.42	571.802
1222.08	981.99
1217.74	644.149
1213.39	313.774
1209.04	237.982
1204.68	221.768
1200.32	180.455
1195.96	175.731
1191.59	193.816
1187.22	232.373
1182.85	484.819
1178.47	361.585
1174.09	270.38
1169.7	222.467
1165.31	156.495
1160.92	145.026
1156.52	147.16
1152.12	205.84
1147.71	644.088
1143.3	514.809
1138.89	309.06
1134.47	180.311
1130.05	177.898
1125.63	209.236
1121.2	245.013
1116.76	323.396
1112.33	998.483
1107.88	768.924
1103.44	1133.31
1098.99	507.962
1094.54	232.512
1090.08	357.388
1085.62	1278.74
1081.15	1021.17
1076.68	356.418
1072.21	302.681
1067.73	233.475
1063.25	244.371
1058.76	486.079
1054.27	376.978
1049.78	199.395
1045.28	157.157
1040.78	145.956
1036.27	145.823
1031.76	134.653
1027.25	145.557
1022.73	138.814
1018.2	125.478
1013.68	145.157
1009.15	131.84
1004.61	127.329
1000.07	131.598
995.527	144.625
990.979	146.681
986.428	122.486
981.871	133.3
977.311	133.177
972.746	148.322
968.178	137.289
963.604	141.517
959.026	152.262
954.445	145.601
949.859	136.782
945.27	160.515
940.675	179.87
936.076	218.675
931.474	136.275
926.866	140.47
922.255	140.339
917.639	144.523
913.019	196.109
908.395	230.375
903.766	161.327
899.133	141.835
894.495	145.996
889.854	233.805
885.207	210.013
880.557	179.842
875.902	173.257
871.243	192.327
866.579	313.839
861.911	961.961
857.239	443.237
852.562	223.539
847.881	155.266
843.195	203.993
838.506	171.957
833.812	188.762
829.112	252.152
824.409	368.344
819.701	1163.21
814.989	230.308
810.272	287.085
805.552	236.199
800.826	370.818
796.096	1953.36
791.361	927.388
786.622	361.359
781.879	237.179
777.13	195.015
772.378	169.69
767.62	186.272
762.858	207.004
758.093	267.386
753.322	525.914
748.547	971.595
743.767	289.534
738.982	216.423
734.193	207.9
729.399	189.008
724.602	180.527
719.799	244.618
714.991	368.646
710.179	486.229
705.362	1920.31
700.541	2981.99
695.715	924.273
690.885	333.903
686.049	290.34
681.209	255.088
676.365	308.278
671.516	377.79
666.662	408.195
661.803	399.604
656.94	313.233
652.072	674.95
647.199	766.249
642.322	298.038
637.44	232.49
632.554	209.854
627.662	181.155
622.766	193.18
617.864	188.93
612.959	174.541
608.048	194.648
603.133	218.766
598.213	236.767
593.288	299.21
588.358	565.525
583.425	379.341
578.485	540.238
573.541	406.799
568.593	297.762
563.639	257.273
558.681	204.816
553.718	266.804
548.749	340.696
543.776	380.408
538.799	188.019
533.816	221.806
528.829	191.646
523.837	193.453
518.84	165.371
513.838	207.01
508.831	216.751
503.819	196.674
498.803	202.436
493.781	216.118