File: Finalized Code/Tuned Standard Models/RAMAN Data MITACs/ESMA/tcnpowder/Raw/Raw(2).txt
#Wave		#Intensity
1634.03	-0.813631
1630.04	-21.46
1626.05	-0.089723
1622.05	35.5381
1618.05	55.2749
1614.04	103.703
1610.04	143.28
1606.03	191.227
1602.01	262.247
1598	1037.71
1593.98	420.714
1589.95	198.61
1585.92	268.946
1581.89	781.578
1577.86	464.27
1573.82	236.392
1569.78	85.3441
1565.74	62.5858
1561.69	32.4684
1557.64	-2.563790
1553.58	6.587925
1549.52	-4.000612
1545.46	34.3473
1541.4	6.372985
1537.33	17.4735
1533.26	8.858937
1529.18	-9.649701
1525.1	-16.0558
1521.02	-0.630115
1516.93	-2.416616
1512.85	2.984527
1508.75	42.3244
1504.66	103.37
1500.56	45.204
1496.45	18.5962
1492.35	4.078193
1488.24	11.3191
1484.12	6.384080
1480.01	8.661327
1475.89	27.8069
1471.76	8.253476
1467.64	-1.644883
1463.51	2.914898
1459.37	7.452581
1455.23	14.3803
1451.09	2.059141
1446.95	-34.2616
1442.8	1.487950
1438.65	-5.980506
1434.49	10.5346
1430.33	3.094392
1426.17	-23.4548
1422	0.243831
1417.83	40.6318
1413.66	-4.923872
1409.48	-17.015
1405.3	23.3253
1401.12	4.115452
1396.93	-10.2969
1392.74	41.8397
1388.54	15.5636
1384.35	-5.922259
1380.14	3.431649
1375.94	5.663586
1371.73	12.616
1367.52	24.2739
1363.3	14.647
1359.08	2.662116
1354.86	16.6099
1350.63	11.6706
1346.4	30.2487
1342.16	11.1498
1337.92	-7.944086
1333.68	5.824716
1329.44	-6.258006
1325.19	-13.6668
1320.93	4.654002
1316.68	-2.821079
1312.42	-14.9929
1308.15	14.8489
1303.88	25.9395
1299.61	36.9748
1295.34	15.3519
1291.06	54.2295
1286.77	148.801
1282.49	131.684
1278.2	179.546
1273.9	292.221
1269.61	891.173
1265.3	280.813
1261	154.835
1256.69	197.735
1252.38	72.0199
1248.06	52.6157
1243.74	33.2384
1239.41	66.8488
1235.09	141.809
1230.75	322.368
1226.42	188.01
1222.08	411.822
1217.74	243.264
1213.39	102.506
1209.04	51.2637
1204.68	11.5697
1200.32	-9.749607
1195.96	23.7757
1191.59	2.554068
1187.22	29.2518
1182.85	158.372
1178.47	73.54
1174.09	25.261
1169.7	29.33
1165.31	26.64
1160.92	-9.981551
1156.52	19.1738
1152.12	32.4997
1147.71	312.534
1143.3	176.665
1138.89	45.6088
1134.47	18.5239
1130.05	5.056143
1125.63	7.417887
1121.2	41.3003
1116.76	70.6841
1112.33	423.172
1107.88	315.513
1103.44	494.782
1098.99	172.524
1094.54	56.5725
1090.08	74.8901
1085.62	586.406
1081.15	434.825
1076.68	145.434
1072.21	70.2487
1067.73	39.6905
1063.25	49.1908
1058.76	211.833
1054.27	116.953
1049.78	26.678
1045.28	0.755362
1040.78	10.2557
1036.27	-22.2533
1031.76	-8.363984
1027.25	-5.548757
1022.73	3.845299
1018.2	4.386237
1013.68	-17.1023
1009.15	-3.432786
1004.61	25.5361
1000.07	6.152866
995.527	15.2421
990.979	4.558089
986.428	-12.7239
981.871	2.746164
977.311	18.127
972.746	2.879749
968.178	18.1052
963.604	17.9967
959.026	9.121281
954.445	11.0612
949.859	25.9574
945.27	12.5606
940.675	29.4621
936.076	15.9557
931.474	4.573845
926.866	-9.009879
922.255	-3.196456
917.639	21.9623
913.019	16.8491
908.395	22.4593
903.766	28.011
899.133	1.272865
894.495	13.1904
889.854	50.7896
885.207	34.7118
880.557	-4.913895
875.902	-14.5421
871.243	22.843
866.579	90.0343
861.911	434.375
857.239	134.519
852.562	28.9623
847.881	21.4491
843.195	9.711118
838.506	8.625395
833.812	20.2868
829.112	27.7118
824.409	88.0732
819.701	488.853
814.989	41.6283
810.272	68.1318
805.552	37.6832
800.826	104.251
796.096	911.667
791.361	413.782
786.622	76.5552
781.879	23.3682
777.13	-14.9958
772.378	-2.965703
767.62	-16.0327
762.858	-8.125831
758.093	47.8489
753.322	216.447
748.547	376.414
743.767	50.7697
738.982	6.703933
734.193	4.321914
729.399	-18.8103
724.602	-0.386998
719.799	30.4456
714.991	65.3628
710.179	180.904
705.362	951.479
700.541	1542.97
695.715	361.089
690.885	73.9304
686.049	28.2225
681.209	34.0081
676.365	58.2543
671.516	86.5344
666.662	124.991
661.803	79.3287
656.94	58.2999
652.072	286.819
647.199	351.417
642.322	77.0149
637.44	11.1573
632.554	12.6668
627.662	20.2939
622.766	-6.639041
617.864	11.2079
612.959	-19.6428
608.048	-13.8799
603.133	22.3256
598.213	42.3526
593.288	70.5194
588.358	197.7
583.425	120.948
578.485	169.44
573.541	103.166
568.593	59.2649
563.639	29.6263
558.681	-1.870009
553.718	69.074
548.749	71.78
543.776	80.4828
538.799	41.1033
533.816	11.659
528.829	4.008894
523.837	-5.953973
518.84	-0.425750
513.838	-1.508927
508.831	6.531276
503.819	21.4538
498.803	-20.5382
493.781	17.2189